'Id: "" Comment: "" Operator: "Lab Manager" Anode: "Mo" Scantype: "Coupled TwoTheta/Theta" TimePerStep: "1536" X: "9999" Y: "9999" Z: "9999" 
4.0000 110.371 0.268
4.0051 109.929 0.268
4.0102 109.003 0.266
4.0153 110.493 0.268
4.0204 110.904 0.269
4.0255 110.018 0.268
4.0306 111.035 0.269
4.0357 111.136 0.269
4.0408 109.501 0.267
4.0459 110.971 0.269
4.0510 111.750 0.270
4.0561 110.723 0.268
4.0612 111.564 0.270
4.0663 111.731 0.270
4.0715 111.195 0.269
4.0766 112.193 0.270
4.0817 112.337 0.270
4.0868 110.978 0.269
4.0919 112.566 0.271
4.0970 113.095 0.271
4.1021 111.796 0.270
4.1072 113.055 0.271
4.1123 112.924 0.271
4.1174 111.941 0.270
4.1225 113.810 0.272
4.1276 112.816 0.271
4.1327 112.398 0.271
4.1378 113.798 0.272
4.1429 113.980 0.272
4.1480 112.922 0.271
4.1531 114.344 0.273
4.1582 114.137 0.273
4.1633 113.949 0.272
4.1684 115.085 0.274
4.1735 114.607 0.273
4.1786 114.083 0.273
4.1837 115.023 0.274
4.1888 115.501 0.274
4.1939 114.341 0.273
4.1990 115.428 0.274
4.2041 115.868 0.275
4.2093 115.530 0.274
4.2144 116.074 0.275
4.2195 116.275 0.275
4.2246 115.877 0.275
4.2297 116.176 0.275
4.2348 116.630 0.276
4.2399 116.452 0.275
4.2450 116.895 0.276
4.2501 117.443 0.277
4.2552 116.854 0.276
4.2603 117.425 0.276
4.2654 118.133 0.277
4.2705 117.548 0.277
4.2756 118.421 0.278
4.2807 118.770 0.278
4.2858 117.491 0.277
4.2909 118.349 0.278
4.2960 119.484 0.279
4.3011 118.108 0.277
4.3062 119.026 0.278
4.3113 119.497 0.279
4.3164 118.577 0.278
4.3215 119.627 0.279
4.3266 120.141 0.280
4.3317 119.871 0.279
4.3368 120.219 0.280
4.3419 120.763 0.280
4.3471 120.077 0.280
4.3522 120.307 0.280
4.3573 121.520 0.281
4.3624 121.465 0.281
4.3675 121.396 0.281
4.3726 121.710 0.281
4.3777 121.795 0.282
4.3828 121.772 0.282
4.3879 122.611 0.283
4.3930 122.109 0.282
4.3981 122.321 0.282
4.4032 122.924 0.283
4.4083 122.932 0.283
4.4134 122.561 0.282
4.4185 123.779 0.284
4.4236 123.492 0.284
4.4287 123.482 0.284
4.4338 124.391 0.285
4.4389 123.982 0.284
4.4440 123.574 0.284
4.4491 124.943 0.285
4.4542 125.152 0.285
4.4593 124.739 0.285
4.4644 126.186 0.287
4.4695 125.491 0.286
4.4746 124.973 0.285
4.4797 125.995 0.286
4.4849 126.728 0.287
4.4900 126.033 0.286
4.4951 127.226 0.288
4.5002 127.115 0.288
4.5053 126.749 0.287
4.5104 127.962 0.289
4.5155 127.068 0.288
4.5206 127.072 0.288
4.5257 128.512 0.289
4.5308 128.879 0.290
4.5359 127.834 0.288
4.5410 129.025 0.290
4.5461 128.892 0.290
4.5512 128.912 0.290
4.5563 129.956 0.291
4.5614 130.106 0.291
4.5665 129.733 0.291
4.5716 130.662 0.292
4.5767 130.023 0.291
4.5818 129.942 0.291
4.5869 131.796 0.293
4.5920 131.939 0.293
4.5971 130.989 0.292
4.6022 132.693 0.294
4.6073 131.986 0.293
4.6124 131.913 0.293
4.6175 132.799 0.294
4.6227 132.905 0.294
4.6278 132.268 0.293
4.6329 133.915 0.295
4.6380 133.679 0.295
4.6431 133.201 0.294
4.6482 134.583 0.296
4.6533 134.154 0.296
4.6584 133.303 0.295
4.6635 135.148 0.297
4.6686 134.940 0.296
4.6737 134.301 0.296
4.6788 136.521 0.298
4.6839 136.015 0.298
4.6890 135.878 0.297
4.6941 136.732 0.298
4.6992 136.729 0.298
4.7043 136.161 0.298
4.7094 137.399 0.299
4.7145 137.387 0.299
4.7196 137.005 0.299
4.7247 138.711 0.301
4.7298 138.169 0.300
4.7349 137.037 0.299
4.7400 139.589 0.301
4.7451 139.371 0.301
4.7502 138.245 0.300
4.7553 140.724 0.303
4.7605 140.291 0.302
4.7656 139.496 0.301
4.7707 141.335 0.303
4.7758 140.296 0.302
4.7809 140.529 0.302
4.7860 141.385 0.303
4.7911 141.919 0.304
4.7962 141.033 0.303
4.8013 143.015 0.305
4.8064 142.808 0.305
4.8115 141.921 0.304
4.8166 143.805 0.306
4.8217 143.231 0.305
4.8268 142.493 0.305
4.8319 144.758 0.307
4.8370 144.729 0.307
4.8421 143.046 0.305
4.8472 145.334 0.308
4.8523 145.038 0.307
4.8574 144.225 0.306
4.8625 147.008 0.309
4.8676 146.526 0.309
4.8727 145.124 0.307
4.8778 147.155 0.310
4.8829 146.882 0.309
4.8880 145.913 0.308
4.8931 147.637 0.310
4.8983 148.282 0.311
4.9034 146.733 0.309
4.9085 149.063 0.312
4.9136 149.131 0.312
4.9187 147.544 0.310
4.9238 150.411 0.313
4.9289 149.872 0.312
4.9340 148.949 0.311
4.9391 150.740 0.313
4.9442 150.652 0.313
4.9493 150.296 0.313
4.9544 152.234 0.315
4.9595 151.409 0.314
4.9646 150.396 0.313
4.9697 152.853 0.315
4.9748 152.050 0.315
4.9799 151.521 0.314
4.9850 154.059 0.317
4.9901 153.268 0.316
4.9952 152.335 0.315
5.0003 154.719 0.317
5.0054 154.070 0.317
5.0105 152.675 0.315
5.0156 155.184 0.318
5.0207 155.234 0.318
5.0258 153.880 0.317
5.0309 156.464 0.319
5.0361 155.988 0.319
5.0412 155.134 0.318
5.0463 156.820 0.320
5.0514 157.040 0.320
5.0565 155.794 0.318
5.0616 157.865 0.321
5.0667 157.476 0.320
5.0718 156.464 0.319
5.0769 158.928 0.322
5.0820 158.424 0.321
5.0871 157.335 0.320
5.0922 159.781 0.323
5.0973 158.432 0.321
5.1024 157.670 0.320
5.1075 160.880 0.324
5.1126 160.427 0.323
5.1177 158.738 0.321
5.1228 161.530 0.324
5.1279 161.126 0.324
5.1330 159.550 0.322
5.1381 162.272 0.325
5.1432 162.344 0.325
5.1483 160.122 0.323
5.1534 162.995 0.326
5.1585 163.242 0.326
5.1636 161.704 0.324
5.1687 163.590 0.326
5.1739 163.507 0.326
5.1790 162.284 0.325
5.1841 164.496 0.327
5.1892 163.985 0.327
5.1943 163.093 0.326
5.1994 165.627 0.328
5.2045 165.243 0.328
5.2096 163.906 0.327
5.2147 165.838 0.329
5.2198 166.285 0.329
5.2249 164.471 0.327
5.2300 167.281 0.330
5.2351 166.669 0.329
5.2402 165.403 0.328
5.2453 167.519 0.330
5.2504 166.874 0.330
5.2555 165.660 0.328
5.2606 167.715 0.330
5.2657 168.101 0.331
5.2708 167.026 0.330
5.2759 168.875 0.332
5.2810 168.467 0.331
5.2861 167.327 0.330
5.2912 169.392 0.332
5.2963 169.754 0.332
5.3014 168.280 0.331
5.3065 169.310 0.332
5.3117 169.464 0.332
5.3168 169.547 0.332
5.3219 170.232 0.333
5.3270 170.777 0.333
5.3321 169.325 0.332
5.3372 170.658 0.333
5.3423 171.636 0.334
5.3474 170.282 0.333
5.3525 171.695 0.334
5.3576 172.165 0.335
5.3627 170.693 0.333
5.3678 172.189 0.335
5.3729 172.270 0.335
5.3780 171.893 0.335
5.3831 172.539 0.335
5.3882 173.527 0.336
5.3933 172.210 0.335
5.3984 173.445 0.336
5.4035 174.036 0.337
5.4086 172.551 0.335
5.4137 173.628 0.336
5.4188 174.348 0.337
5.4239 173.337 0.336
5.4290 173.976 0.337
5.4341 174.442 0.337
5.4392 173.679 0.336
5.4443 174.417 0.337
5.4495 175.249 0.338
5.4546 173.826 0.336
5.4597 175.097 0.338
5.4648 175.324 0.338
5.4699 174.788 0.337
5.4750 174.890 0.337
5.4801 175.900 0.338
5.4852 175.236 0.338
5.4903 175.583 0.338
5.4954 176.996 0.339
5.5005 175.995 0.338
5.5056 175.512 0.338
5.5107 176.768 0.339
5.5158 175.854 0.338
5.5209 175.773 0.338
5.5260 177.682 0.340
5.5311 176.092 0.339
5.5362 176.729 0.339
5.5413 176.847 0.339
5.5464 176.227 0.339
5.5515 175.691 0.338
5.5566 177.577 0.340
5.5617 176.809 0.339
5.5668 175.967 0.338
5.5719 178.432 0.341
5.5770 177.190 0.340
5.5821 177.223 0.340
5.5873 178.447 0.341
5.5924 177.215 0.340
5.5975 176.294 0.339
5.6026 178.688 0.341
5.6077 177.683 0.340
5.6128 176.611 0.339
5.6179 178.344 0.341
5.6230 177.326 0.340
5.6281 177.857 0.340
5.6332 178.022 0.340
5.6383 177.576 0.340
5.6434 176.756 0.339
5.6485 178.665 0.341
5.6536 178.105 0.341
5.6587 177.602 0.340
5.6638 178.921 0.341
5.6689 177.499 0.340
5.6740 177.786 0.340
5.6791 179.114 0.341
5.6842 178.348 0.341
5.6893 177.746 0.340
5.6944 179.133 0.342
5.6995 178.342 0.341
5.7046 177.201 0.340
5.7097 179.091 0.341
5.7148 177.909 0.340
5.7199 177.342 0.340
5.7251 178.936 0.341
5.7302 177.960 0.340
5.7353 177.893 0.340
5.7404 178.257 0.341
5.7455 177.423 0.340
5.7506 177.354 0.340
5.7557 178.809 0.341
5.7608 178.244 0.341
5.7659 176.718 0.339
5.7710 179.127 0.341
5.7761 177.462 0.340
5.7812 177.201 0.340
5.7863 178.868 0.341
5.7914 177.399 0.340
5.7965 177.587 0.340
5.8016 178.053 0.340
5.8067 177.947 0.340
5.8118 176.677 0.339
5.8169 178.290 0.341
5.8220 177.245 0.340
5.8271 176.087 0.339
5.8322 178.555 0.341
5.8373 176.721 0.339
5.8424 175.831 0.338
5.8475 177.772 0.340
5.8526 176.549 0.339
5.8577 175.706 0.338
5.8629 177.275 0.340
5.8680 175.624 0.338
5.8731 175.395 0.338
5.8782 177.986 0.340
5.8833 176.066 0.339
5.8884 175.354 0.338
5.8935 176.805 0.339
5.8986 176.654 0.339
5.9037 174.718 0.337
5.9088 176.598 0.339
5.9139 175.288 0.338
5.9190 174.217 0.337
5.9241 175.961 0.338
5.9292 174.701 0.337
5.9343 174.278 0.337
5.9394 175.756 0.338
5.9445 175.518 0.338
5.9496 173.458 0.336
5.9547 175.125 0.338
5.9598 174.811 0.337
5.9649 173.597 0.336
5.9700 175.475 0.338
5.9751 173.781 0.336
5.9802 172.745 0.335
5.9853 174.623 0.337
5.9904 173.876 0.336
5.9955 172.541 0.335
6.0007 173.231 0.336
6.0058 172.641 0.335
6.0109 171.645 0.334
6.0160 173.337 0.336
6.0211 172.602 0.335
6.0262 171.549 0.334
6.0313 173.165 0.336
6.0364 172.195 0.335
6.0415 171.052 0.334
6.0466 172.691 0.335
6.0517 171.557 0.334
6.0568 169.984 0.333
6.0619 171.952 0.335
6.0670 170.833 0.333
6.0721 170.133 0.333
6.0772 171.760 0.334
6.0823 170.911 0.334
6.0874 168.572 0.331
6.0925 171.752 0.334
6.0976 170.651 0.333
6.1027 168.578 0.331
6.1078 170.517 0.333
6.1129 169.703 0.332
6.1180 167.857 0.331
6.1231 169.997 0.333
6.1282 168.691 0.331
6.1333 167.514 0.330
6.1385 169.298 0.332
6.1436 168.734 0.331
6.1487 167.408 0.330
6.1538 168.666 0.331
6.1589 167.998 0.331
6.1640 166.057 0.329
6.1691 167.977 0.331
6.1742 167.234 0.330
6.1793 165.317 0.328
6.1844 167.559 0.330
6.1895 166.282 0.329
6.1946 164.837 0.328
6.1997 166.508 0.329
6.2048 165.747 0.328
6.2099 164.004 0.327
6.2150 166.359 0.329
6.2201 165.149 0.328
6.2252 162.680 0.325
6.2303 166.154 0.329
6.2354 164.563 0.327
6.2405 162.765 0.326
6.2456 165.132 0.328
6.2507 163.395 0.326
6.2558 162.202 0.325
6.2609 163.844 0.327
6.2660 162.879 0.326
6.2711 161.150 0.324
6.2763 163.428 0.326
6.2814 162.540 0.325
6.2865 160.538 0.323
6.2916 162.587 0.325
6.2967 161.950 0.325
6.3018 160.266 0.323
6.3069 162.296 0.325
6.3120 161.381 0.324
6.3171 159.737 0.322
6.3222 160.889 0.324
6.3273 160.035 0.323
6.3324 158.316 0.321
6.3375 159.877 0.323
6.3426 159.682 0.322
6.3477 157.665 0.320
6.3528 159.514 0.322
6.3579 158.783 0.322
6.3630 157.801 0.321
6.3681 158.965 0.322
6.3732 158.348 0.321
6.3783 157.019 0.320
6.3834 157.790 0.321
6.3885 157.404 0.320
6.3936 156.382 0.319
6.3987 157.370 0.320
6.4038 156.381 0.319
6.4089 155.439 0.318
6.4141 156.710 0.319
6.4192 155.730 0.318
6.4243 154.859 0.318
6.4294 155.074 0.318
6.4345 155.206 0.318
6.4396 154.047 0.317
6.4447 154.621 0.317
6.4498 154.021 0.317
6.4549 154.036 0.317
6.4600 153.896 0.317
6.4651 153.975 0.317
6.4702 152.511 0.315
6.4753 153.148 0.316
6.4804 153.877 0.317
6.4855 151.910 0.314
6.4906 152.430 0.315
6.4957 152.503 0.315
6.5008 151.789 0.314
6.5059 152.063 0.315
6.5110 151.556 0.314
6.5161 149.980 0.312
6.5212 151.447 0.314
6.5263 151.055 0.314
6.5314 149.903 0.312
6.5365 150.346 0.313
6.5416 150.505 0.313
6.5467 148.855 0.311
6.5519 149.442 0.312
6.5570 149.706 0.312
6.5621 148.047 0.310
6.5672 148.510 0.311
6.5723 148.329 0.311
6.5774 147.881 0.310
6.5825 147.874 0.310
6.5876 148.054 0.310
6.5927 147.079 0.309
6.5978 146.648 0.309
6.6029 147.114 0.309
6.6080 146.391 0.309
6.6131 146.451 0.309
6.6182 147.134 0.310
6.6233 145.376 0.308
6.6284 145.301 0.308
6.6335 145.227 0.307
6.6386 144.266 0.306
6.6437 144.564 0.307
6.6488 145.096 0.307
6.6539 143.681 0.306
6.6590 143.535 0.306
6.6641 144.805 0.307
6.6692 143.338 0.305
6.6743 143.628 0.306
6.6794 143.295 0.305
6.6845 143.237 0.305
6.6897 141.781 0.304
6.6948 142.568 0.305
6.6999 142.314 0.304
6.7050 141.076 0.303
6.7101 141.948 0.304
6.7152 141.145 0.303
6.7203 140.352 0.302
6.7254 141.421 0.303
6.7305 140.533 0.302
6.7356 139.709 0.302
6.7407 140.307 0.302
6.7458 139.044 0.301
6.7509 139.332 0.301
6.7560 138.997 0.301
6.7611 138.788 0.301
6.7662 138.413 0.300
6.7713 138.268 0.300
6.7764 138.059 0.300
6.7815 137.168 0.299
6.7866 138.090 0.300
6.7917 137.485 0.299
6.7968 136.395 0.298
6.8019 137.803 0.300
6.8070 136.810 0.298
6.8121 135.036 0.297
6.8172 136.375 0.298
6.8223 136.119 0.298
6.8275 134.484 0.296
6.8326 135.730 0.297
6.8377 134.898 0.296
6.8428 134.376 0.296
6.8479 134.882 0.296
6.8530 134.658 0.296
6.8581 133.706 0.295
6.8632 134.533 0.296
6.8683 134.051 0.295
6.8734 132.997 0.294
6.8785 133.189 0.294
6.8836 133.189 0.294
6.8887 132.082 0.293
6.8938 133.066 0.294
6.8989 131.823 0.293
6.9040 130.751 0.292
6.9091 132.367 0.294
6.9142 131.514 0.293
6.9193 130.655 0.292
6.9244 131.604 0.293
6.9295 130.722 0.292
6.9346 130.172 0.291
6.9397 130.911 0.292
6.9448 130.245 0.291
6.9499 129.864 0.291
6.9550 130.142 0.291
6.9601 128.886 0.290
6.9653 128.388 0.289
6.9704 129.381 0.290
6.9755 128.734 0.290
6.9806 127.473 0.288
6.9857 128.800 0.290
6.9908 127.333 0.288
6.9959 126.931 0.287
7.0010 128.306 0.289
7.0061 126.944 0.287
7.0112 126.652 0.287
7.0163 127.260 0.288
7.0214 126.221 0.287
7.0265 125.073 0.285
7.0316 127.087 0.288
7.0367 125.860 0.286
7.0418 124.673 0.285
7.0469 125.958 0.286
7.0520 125.158 0.285
7.0571 124.419 0.285
7.0622 125.396 0.286
7.0673 124.119 0.284
7.0724 123.318 0.283
7.0775 124.609 0.285
7.0826 123.639 0.284
7.0877 122.784 0.283
7.0928 124.068 0.284
7.0979 122.807 0.283
7.1031 122.079 0.282
7.1082 122.732 0.283
7.1133 122.598 0.283
7.1184 121.163 0.281
7.1235 122.194 0.282
7.1286 122.094 0.282
7.1337 120.444 0.280
7.1388 121.642 0.281
7.1439 121.072 0.281
7.1490 119.869 0.279
7.1541 120.773 0.280
7.1592 119.975 0.279
7.1643 119.047 0.278
7.1694 119.983 0.279
7.1745 120.002 0.280
7.1796 118.712 0.278
7.1847 119.315 0.279
7.1898 118.128 0.277
7.1949 117.748 0.277
7.2000 119.061 0.278
7.2051 118.155 0.277
7.2102 116.600 0.276
7.2153 118.096 0.277
7.2204 117.361 0.276
7.2255 115.954 0.275
7.2306 117.452 0.277
7.2357 116.420 0.275
7.2409 116.311 0.275
7.2460 116.956 0.276
7.2511 116.015 0.275
7.2562 114.825 0.273
7.2613 116.397 0.275
7.2664 115.635 0.274
7.2715 114.272 0.273
7.2766 115.158 0.274
7.2817 114.683 0.273
7.2868 113.818 0.272
7.2919 114.880 0.273
7.2970 113.770 0.272
7.3021 113.212 0.271
7.3072 113.766 0.272
7.3123 113.262 0.272
7.3174 111.995 0.270
7.3225 113.577 0.272
7.3276 113.141 0.271
7.3327 111.875 0.270
7.3378 112.766 0.271
7.3429 112.251 0.270
7.3480 111.332 0.269
7.3531 112.095 0.270
7.3582 112.339 0.270
7.3633 110.476 0.268
7.3684 111.144 0.269
7.3735 111.106 0.269
7.3787 109.894 0.267
7.3838 110.929 0.269
7.3889 110.110 0.268
7.3940 109.113 0.267
7.3991 110.669 0.268
7.4042 109.865 0.267
7.4093 108.617 0.266
7.4144 109.883 0.267
7.4195 109.059 0.266
7.4246 107.792 0.265
7.4297 108.798 0.266
7.4348 108.669 0.266
7.4399 107.344 0.264
7.4450 108.357 0.266
7.4501 107.674 0.265
7.4552 106.861 0.264
7.4603 107.678 0.265
7.4654 107.100 0.264
7.4705 106.005 0.263
7.4756 107.128 0.264
7.4807 106.309 0.263
7.4858 105.383 0.262
7.4909 106.023 0.263
7.4960 105.944 0.263
7.5011 104.855 0.261
7.5062 105.589 0.262
7.5113 105.281 0.262
7.5165 104.062 0.260
7.5216 105.344 0.262
7.5267 105.008 0.261
7.5318 103.777 0.260
7.5369 104.471 0.261
7.5420 104.111 0.260
7.5471 103.233 0.259
7.5522 103.919 0.260
7.5573 103.722 0.260
7.5624 102.564 0.258
7.5675 103.036 0.259
7.5726 103.371 0.259
7.5777 102.137 0.258
7.5828 102.753 0.259
7.5879 102.480 0.258
7.5930 101.544 0.257
7.5981 101.630 0.257
7.6032 101.322 0.257
7.6083 100.818 0.256
7.6134 100.917 0.256
7.6185 101.895 0.258
7.6236 100.320 0.256
7.6287 100.939 0.256
7.6338 100.563 0.256
7.6389 99.555 0.255
7.6440 99.814 0.255
7.6491 99.536 0.255
7.6543 99.389 0.254
7.6594 99.263 0.254
7.6645 99.792 0.255
7.6696 98.777 0.254
7.6747 98.546 0.253
7.6798 98.966 0.254
7.6849 98.199 0.253
7.6900 97.994 0.253
7.6951 98.441 0.253
7.7002 97.511 0.252
7.7053 97.615 0.252
7.7104 98.021 0.253
7.7155 96.757 0.251
7.7206 96.702 0.251
7.7257 97.324 0.252
7.7308 96.600 0.251
7.7359 96.540 0.251
7.7410 96.331 0.250
7.7461 96.111 0.250
7.7512 95.550 0.249
7.7563 95.626 0.250
7.7614 95.133 0.249
7.7665 94.964 0.249
7.7716 95.397 0.249
7.7767 95.066 0.249
7.7818 94.590 0.248
7.7869 94.661 0.248
7.7921 94.098 0.248
7.7972 93.734 0.247
7.8023 94.861 0.249
7.8074 93.891 0.247
7.8125 93.045 0.246
7.8176 93.335 0.247
7.8227 93.010 0.246
7.8278 92.580 0.246
7.8329 92.565 0.245
7.8380 92.325 0.245
7.8431 92.267 0.245
7.8482 92.727 0.246
7.8533 91.953 0.245
7.8584 91.212 0.244
7.8635 91.622 0.244
7.8686 91.755 0.244
7.8737 90.540 0.243
7.8788 90.999 0.243
7.8839 90.589 0.243
7.8890 90.122 0.242
7.8941 90.152 0.242
7.8992 89.558 0.241
7.9043 89.505 0.241
7.9094 90.156 0.242
7.9145 89.499 0.241
7.9196 88.830 0.240
7.9247 89.423 0.241
7.9299 89.460 0.241
7.9350 88.416 0.240
7.9401 89.035 0.241
7.9452 88.343 0.240
7.9503 88.111 0.240
7.9554 88.306 0.240
7.9605 88.323 0.240
7.9656 86.727 0.238
7.9707 87.920 0.239
7.9758 87.232 0.238
7.9809 86.865 0.238
7.9860 86.931 0.238
7.9911 86.708 0.238
7.9962 86.430 0.237
8.0013 86.844 0.238
8.0064 86.028 0.237
8.0115 85.500 0.236
8.0166 86.364 0.237
8.0217 85.849 0.236
8.0268 85.475 0.236
8.0319 86.087 0.237
8.0370 85.135 0.235
8.0421 84.493 0.235
8.0472 85.521 0.236
8.0523 84.579 0.235
8.0574 84.100 0.234
8.0625 84.408 0.234
8.0677 84.605 0.235
8.0728 83.500 0.233
8.0779 83.924 0.234
8.0830 83.714 0.233
8.0881 82.967 0.232
8.0932 83.469 0.233
8.0983 83.133 0.233
8.1034 82.301 0.231
8.1085 82.728 0.232
8.1136 82.940 0.232
8.1187 81.913 0.231
8.1238 82.327 0.232
8.1289 81.989 0.231
8.1340 81.103 0.230
8.1391 82.361 0.232
8.1442 81.195 0.230
8.1493 80.279 0.229
8.1544 81.207 0.230
8.1595 81.649 0.231
8.1646 80.038 0.228
8.1697 81.330 0.230
8.1748 80.796 0.229
8.1799 80.126 0.228
8.1850 80.989 0.230
8.1901 80.889 0.229
8.1952 80.340 0.229
8.2003 81.156 0.230
8.2055 80.334 0.229
8.2106 79.440 0.227
8.2157 80.549 0.229
8.2208 80.626 0.229
8.2259 79.661 0.228
8.2310 80.566 0.229
8.2361 81.105 0.230
8.2412 80.292 0.229
8.2463 81.178 0.230
8.2514 80.973 0.230
8.2565 80.442 0.229
8.2616 81.439 0.230
8.2667 81.037 0.230
8.2718 80.757 0.229
8.2769 81.145 0.230
8.2820 81.019 0.230
8.2871 80.546 0.229
8.2922 81.511 0.230
8.2973 81.651 0.231
8.3024 80.888 0.229
8.3075 82.001 0.231
8.3126 82.195 0.231
8.3177 81.518 0.230
8.3228 82.803 0.232
8.3279 82.854 0.232
8.3330 82.466 0.232
8.3382 83.784 0.234
8.3433 83.654 0.233
8.3484 83.510 0.233
8.3535 85.509 0.236
8.3586 85.599 0.236
8.3637 85.898 0.236
8.3688 87.175 0.238
8.3739 88.159 0.240
8.3790 87.764 0.239
8.3841 89.847 0.242
8.3892 91.260 0.244
8.3943 91.411 0.244
8.3994 93.958 0.247
8.4045 95.675 0.250
8.4096 96.238 0.250
8.4147 99.984 0.255
8.4198 101.910 0.258
8.4249 103.866 0.260
8.4300 107.743 0.265
8.4351 111.297 0.269
8.4402 113.863 0.272
8.4453 119.409 0.279
8.4504 123.981 0.284
8.4555 128.359 0.289
8.4606 135.219 0.297
8.4657 139.604 0.301
8.4708 143.042 0.305
8.4760 149.197 0.312
8.4811 150.750 0.313
8.4862 148.851 0.311
8.4913 148.674 0.311
8.4964 143.048 0.305
8.5015 135.490 0.297
8.5066 130.376 0.291
8.5117 123.921 0.284
8.5168 117.736 0.277
8.5219 116.243 0.275
8.5270 113.719 0.272
8.5321 109.923 0.268
8.5372 108.959 0.266
8.5423 105.463 0.262
8.5474 100.436 0.256
8.5525 96.443 0.251
8.5576 90.592 0.243
8.5627 85.069 0.235
8.5678 81.785 0.231
8.5729 78.213 0.226
8.5780 75.114 0.221
8.5831 74.348 0.220
8.5882 72.795 0.218
8.5933 70.952 0.215
8.5984 70.997 0.215
8.6035 70.251 0.214
8.6086 68.951 0.212
8.6138 69.189 0.212
8.6189 68.411 0.211
8.6240 67.359 0.209
8.6291 67.870 0.210
8.6342 67.309 0.209
8.6393 66.622 0.208
8.6444 66.772 0.208
8.6495 66.529 0.208
8.6546 65.721 0.207
8.6597 65.983 0.207
8.6648 65.767 0.207
8.6699 64.765 0.205
8.6750 65.046 0.206
8.6801 65.170 0.206
8.6852 64.281 0.205
8.6903 64.548 0.205
8.6954 64.379 0.205
8.7005 63.665 0.204
8.7056 63.882 0.204
8.7107 63.614 0.204
8.7158 63.523 0.203
8.7209 63.166 0.203
8.7260 63.385 0.203
8.7311 63.178 0.203
8.7362 63.078 0.203
8.7413 62.702 0.202
8.7464 62.211 0.201
8.7516 62.318 0.201
8.7567 62.059 0.201
8.7618 61.990 0.201
8.7669 61.679 0.200
8.7720 62.340 0.201
8.7771 61.289 0.200
8.7822 61.375 0.200
8.7873 61.816 0.201
8.7924 61.508 0.200
8.7975 60.933 0.199
8.8026 61.337 0.200
8.8077 60.637 0.199
8.8128 60.428 0.198
8.8179 60.359 0.198
8.8230 59.917 0.198
8.8281 60.568 0.199
8.8332 60.170 0.198
8.8383 59.835 0.197
8.8434 59.900 0.197
8.8485 59.836 0.197
8.8536 59.253 0.196
8.8587 59.129 0.196
8.8638 59.547 0.197
8.8689 58.940 0.196
8.8740 58.743 0.196
8.8791 59.049 0.196
8.8842 58.615 0.195
8.8894 58.350 0.195
8.8945 58.929 0.196
8.8996 58.206 0.195
8.9047 58.163 0.195
8.9098 58.683 0.195
8.9149 58.330 0.195
8.9200 58.068 0.194
8.9251 57.926 0.194
8.9302 57.561 0.194
8.9353 57.548 0.194
8.9404 57.926 0.194
8.9455 57.154 0.193
8.9506 57.040 0.193
8.9557 57.196 0.193
8.9608 56.827 0.192
8.9659 56.704 0.192
8.9710 56.971 0.193
8.9761 56.588 0.192
8.9812 56.042 0.191
8.9863 56.512 0.192
8.9914 56.041 0.191
8.9965 55.828 0.191
9.0016 56.286 0.191
9.0067 56.195 0.191
9.0118 55.516 0.190
9.0169 55.804 0.191
9.0220 55.296 0.190
9.0272 55.113 0.189
9.0323 55.516 0.190
9.0374 54.872 0.189
9.0425 54.780 0.189
9.0476 55.352 0.190
9.0527 54.843 0.189
9.0578 54.859 0.189
9.0629 54.870 0.189
9.0680 54.537 0.188
9.0731 54.161 0.188
9.0782 54.490 0.188
9.0833 54.337 0.188
9.0884 53.970 0.187
9.0935 54.154 0.188
9.0986 53.923 0.187
9.1037 53.472 0.187
9.1088 53.971 0.187
9.1139 53.588 0.187
9.1190 53.037 0.186
9.1241 53.614 0.187
9.1292 53.520 0.187
9.1343 52.934 0.186
9.1394 53.674 0.187
9.1445 52.843 0.185
9.1496 52.790 0.185
9.1547 52.902 0.186
9.1598 52.630 0.185
9.1650 52.338 0.185
9.1701 52.557 0.185
9.1752 52.752 0.185
9.1803 51.953 0.184
9.1854 52.449 0.185
9.1905 52.270 0.184
9.1956 51.801 0.184
9.2007 52.073 0.184
9.2058 51.820 0.184
9.2109 51.225 0.183
9.2160 51.946 0.184
9.2211 51.752 0.184
9.2262 51.046 0.182
9.2313 51.682 0.183
9.2364 51.641 0.183
9.2415 50.813 0.182
9.2466 51.107 0.182
9.2517 50.870 0.182
9.2568 50.447 0.181
9.2619 50.844 0.182
9.2670 50.404 0.181
9.2721 50.266 0.181
9.2772 50.658 0.182
9.2823 50.141 0.181
9.2874 50.170 0.181
9.2925 50.227 0.181
9.2976 50.401 0.181
9.3028 49.747 0.180
9.3079 50.416 0.181
9.3130 49.790 0.180
9.3181 49.403 0.179
9.3232 50.140 0.181
9.3283 49.812 0.180
9.3334 49.299 0.179
9.3385 49.678 0.180
9.3436 49.111 0.179
9.3487 48.871 0.178
9.3538 49.547 0.180
9.3589 49.365 0.179
9.3640 48.771 0.178
9.3691 49.086 0.179
9.3742 48.671 0.178
9.3793 48.533 0.178
9.3844 48.944 0.179
9.3895 48.658 0.178
9.3946 48.424 0.178
9.3997 48.490 0.178
9.4048 48.438 0.178
9.4099 48.010 0.177
9.4150 48.351 0.177
9.4201 48.177 0.177
9.4252 47.550 0.176
9.4303 48.199 0.177
9.4354 47.811 0.176
9.4406 47.342 0.176
9.4457 47.833 0.176
9.4508 47.860 0.177
9.4559 47.105 0.175
9.4610 47.598 0.176
9.4661 47.242 0.175
9.4712 46.916 0.175
9.4763 47.495 0.176
9.4814 47.114 0.175
9.4865 46.606 0.174
9.4916 47.565 0.176
9.4967 46.980 0.175
9.5018 46.532 0.174
9.5069 47.131 0.175
9.5120 46.570 0.174
9.5171 46.055 0.173
9.5222 46.895 0.175
9.5273 46.456 0.174
9.5324 45.779 0.173
9.5375 46.244 0.174
9.5426 45.917 0.173
9.5477 45.465 0.172
9.5528 46.412 0.174
9.5579 45.798 0.173
9.5630 45.567 0.172
9.5681 46.148 0.173
9.5732 45.896 0.173
9.5784 45.669 0.172
9.5835 45.866 0.173
9.5886 45.801 0.173
9.5937 45.240 0.172
9.5988 45.663 0.172
9.6039 45.384 0.172
9.6090 44.856 0.171
9.6141 45.615 0.172
9.6192 45.178 0.172
9.6243 44.605 0.170
9.6294 45.484 0.172
9.6345 45.248 0.172
9.6396 44.466 0.170
9.6447 44.566 0.170
9.6498 44.709 0.171
9.6549 44.415 0.170
9.6600 44.704 0.171
9.6651 44.570 0.170
9.6702 43.721 0.169
9.6753 44.407 0.170
9.6804 44.421 0.170
9.6855 43.688 0.169
9.6906 44.345 0.170
9.6957 43.960 0.169
9.7008 43.574 0.168
9.7059 43.955 0.169
9.7110 43.842 0.169
9.7162 43.371 0.168
9.7213 43.747 0.169
9.7264 43.760 0.169
9.7315 43.523 0.168
9.7366 43.734 0.169
9.7417 43.923 0.169
9.7468 42.913 0.167
9.7519 43.578 0.168
9.7570 43.241 0.168
9.7621 43.126 0.168
9.7672 43.337 0.168
9.7723 43.096 0.168
9.7774 42.950 0.167
9.7825 43.057 0.167
9.7876 42.714 0.167
9.7927 43.044 0.167
9.7978 42.691 0.167
9.8029 42.726 0.167
9.8080 41.999 0.165
9.8131 42.764 0.167
9.8182 42.289 0.166
9.8233 42.467 0.166
9.8284 42.281 0.166
9.8335 42.158 0.166
9.8386 42.165 0.166
9.8437 42.273 0.166
9.8488 42.419 0.166
9.8540 41.952 0.165
9.8591 41.737 0.165
9.8642 42.035 0.165
9.8693 41.707 0.165
9.8744 42.145 0.166
9.8795 41.936 0.165
9.8846 41.911 0.165
9.8897 41.377 0.164
9.8948 41.430 0.164
9.8999 41.454 0.164
9.9050 41.478 0.164
9.9101 41.600 0.165
9.9152 41.202 0.164
9.9203 41.136 0.164
9.9254 41.443 0.164
9.9305 41.586 0.165
9.9356 41.261 0.164
9.9407 41.107 0.164
9.9458 40.955 0.163
9.9509 41.137 0.164
9.9560 40.941 0.163
9.9611 40.837 0.163
9.9662 40.893 0.163
9.9713 40.642 0.163
9.9764 40.676 0.163
9.9815 40.319 0.162
9.9866 40.784 0.163
9.9918 40.712 0.163
9.9969 40.314 0.162
10.0020 40.609 0.163
10.0071 40.220 0.162
10.0122 40.118 0.162
10.0173 40.531 0.162
10.0224 40.246 0.162
10.0275 40.223 0.162
10.0326 39.938 0.161
10.0377 40.194 0.162
10.0428 39.892 0.161
10.0479 40.107 0.162
10.0530 40.079 0.162
10.0581 39.995 0.161
10.0632 39.798 0.161
10.0683 39.948 0.161
10.0734 39.677 0.161
10.0785 39.891 0.161
10.0836 39.726 0.161
10.0887 39.691 0.161
10.0938 39.756 0.161
10.0989 39.523 0.160
10.1040 39.401 0.160
10.1091 39.551 0.160
10.1142 39.729 0.161
10.1193 39.300 0.160
10.1244 39.616 0.161
10.1296 39.510 0.160
10.1347 39.046 0.159
10.1398 39.603 0.161
10.1449 39.258 0.160
10.1500 39.265 0.160
10.1551 39.264 0.160
10.1602 39.130 0.160
10.1653 39.051 0.159
10.1704 39.299 0.160
10.1755 39.524 0.160
10.1806 38.714 0.159
10.1857 39.119 0.160
10.1908 39.100 0.160
10.1959 38.824 0.159
10.2010 39.165 0.160
10.2061 39.254 0.160
10.2112 38.507 0.158
10.2163 38.840 0.159
10.2214 38.876 0.159
10.2265 38.067 0.157
10.2316 38.521 0.158
10.2367 38.473 0.158
10.2418 38.441 0.158
10.2469 38.677 0.159
10.2520 38.768 0.159
10.2571 38.387 0.158
10.2622 38.840 0.159
10.2674 38.576 0.158
10.2725 38.479 0.158
10.2776 38.817 0.159
10.2827 38.432 0.158
10.2878 38.228 0.158
10.2929 38.456 0.158
10.2980 38.525 0.158
10.3031 38.119 0.158
10.3082 38.216 0.158
10.3133 38.184 0.158
10.3184 37.927 0.157
10.3235 38.453 0.158
10.3286 38.063 0.157
10.3337 38.010 0.157
10.3388 38.494 0.158
10.3439 38.262 0.158
10.3490 37.801 0.157
10.3541 38.229 0.158
10.3592 38.201 0.158
10.3643 37.921 0.157
10.3694 38.223 0.158
10.3745 38.053 0.157
10.3796 37.626 0.157
10.3847 38.196 0.158
10.3898 37.984 0.157
10.3949 37.691 0.157
10.4000 37.855 0.157
10.4052 37.577 0.156
10.4103 37.688 0.157
10.4154 37.856 0.157
10.4205 37.706 0.157
10.4256 37.975 0.157
10.4307 37.716 0.157
10.4358 37.637 0.157
10.4409 37.388 0.156
10.4460 38.079 0.157
10.4511 37.639 0.157
10.4562 37.587 0.156
10.4613 37.411 0.156
10.4664 37.413 0.156
10.4715 37.220 0.156
10.4766 37.741 0.157
10.4817 37.459 0.156
10.4868 37.348 0.156
10.4919 37.643 0.157
10.4970 37.660 0.157
10.5021 37.298 0.156
10.5072 37.587 0.156
10.5123 37.527 0.156
10.5174 37.253 0.156
10.5225 37.645 0.157
10.5276 37.337 0.156
10.5327 37.100 0.155
10.5378 37.277 0.156
10.5430 37.253 0.156
10.5481 37.083 0.155
10.5532 37.594 0.156
10.5583 37.574 0.156
10.5634 37.286 0.156
10.5685 37.316 0.156
10.5736 37.290 0.156
10.5787 37.179 0.156
10.5838 37.238 0.156
10.5889 37.344 0.156
10.5940 36.929 0.155
10.5991 37.015 0.155
10.6042 37.320 0.156
10.6093 36.868 0.155
10.6144 37.048 0.155
10.6195 37.020 0.155
10.6246 36.790 0.155
10.6297 37.394 0.156
10.6348 37.215 0.156
10.6399 36.827 0.155
10.6450 37.122 0.155
10.6501 37.432 0.156
10.6552 36.732 0.155
10.6603 37.078 0.155
10.6654 37.348 0.156
10.6705 36.622 0.154
10.6756 37.121 0.155
10.6808 37.094 0.155
10.6859 36.519 0.154
10.6910 36.973 0.155
10.6961 37.085 0.155
10.7012 36.634 0.154
10.7063 37.326 0.156
10.7114 37.132 0.155
10.7165 36.816 0.155
10.7216 37.124 0.155
10.7267 37.287 0.156
10.7318 36.990 0.155
10.7369 36.920 0.155
10.7420 37.018 0.155
10.7471 36.736 0.155
10.7522 36.979 0.155
10.7573 37.207 0.156
10.7624 36.665 0.155
10.7675 37.077 0.155
10.7726 36.697 0.155
10.7777 36.299 0.154
10.7828 37.083 0.155
10.7879 36.917 0.155
10.7930 36.837 0.155
10.7981 36.916 0.155
10.8032 37.117 0.155
10.8083 37.031 0.155
10.8134 36.669 0.155
10.8186 36.872 0.155
10.8237 36.669 0.155
10.8288 36.953 0.155
10.8339 37.070 0.155
10.8390 36.786 0.155
10.8441 36.873 0.155
10.8492 37.040 0.155
10.8543 36.536 0.154
10.8594 36.751 0.155
10.8645 36.816 0.155
10.8696 36.701 0.155
10.8747 36.608 0.154
10.8798 37.008 0.155
10.8849 36.469 0.154
10.8900 37.000 0.155
10.8951 37.049 0.155
10.9002 36.460 0.154
10.9053 36.872 0.155
10.9104 36.627 0.154
10.9155 36.514 0.154
10.9206 37.169 0.156
10.9257 36.814 0.155
10.9308 36.770 0.155
10.9359 36.743 0.155
10.9410 36.658 0.154
10.9461 36.633 0.154
10.9512 36.918 0.155
10.9564 36.977 0.155
10.9615 36.697 0.155
10.9666 37.001 0.155
10.9717 37.123 0.155
10.9768 36.530 0.154
10.9819 36.676 0.155
10.9870 37.251 0.156
10.9921 36.713 0.155
10.9972 36.704 0.155
11.0023 36.814 0.155
11.0074 36.836 0.155
11.0125 36.800 0.155
11.0176 37.085 0.155
11.0227 36.527 0.154
11.0278 36.956 0.155
11.0329 37.010 0.155
11.0380 36.755 0.155
11.0431 36.680 0.155
11.0482 37.051 0.155
11.0533 36.806 0.155
11.0584 36.549 0.154
11.0635 37.247 0.156
11.0686 36.753 0.155
11.0737 37.107 0.155
11.0788 36.878 0.155
11.0839 36.810 0.155
11.0890 36.943 0.155
11.0942 36.863 0.155
11.0993 36.406 0.154
11.1044 36.701 0.155
11.1095 36.983 0.155
11.1146 37.070 0.155
11.1197 36.660 0.154
11.1248 36.969 0.155
11.1299 37.079 0.155
11.1350 36.852 0.155
11.1401 37.183 0.156
11.1452 36.794 0.155
11.1503 36.958 0.155
11.1554 37.064 0.155
11.1605 36.962 0.155
11.1656 36.921 0.155
11.1707 36.967 0.155
11.1758 36.894 0.155
11.1809 36.884 0.155
11.1860 37.246 0.156
11.1911 36.975 0.155
11.1962 36.826 0.155
11.2013 37.262 0.156
11.2064 37.253 0.156
11.2115 37.105 0.155
11.2166 37.348 0.156
11.2217 37.132 0.155
11.2268 36.988 0.155
11.2320 37.271 0.156
11.2371 37.215 0.156
11.2422 37.186 0.156
11.2473 37.186 0.156
11.2524 37.253 0.156
11.2575 36.970 0.155
11.2626 37.635 0.157
11.2677 37.229 0.156
11.2728 36.726 0.155
11.2779 37.137 0.155
11.2830 37.603 0.156
11.2881 36.986 0.155
11.2932 37.490 0.156
11.2983 37.466 0.156
11.3034 37.255 0.156
11.3085 37.316 0.156
11.3136 37.235 0.156
11.3187 37.236 0.156
11.3238 37.489 0.156
11.3289 37.604 0.156
11.3340 37.085 0.155
11.3391 37.325 0.156
11.3442 37.509 0.156
11.3493 37.096 0.155
11.3544 37.715 0.157
11.3595 37.513 0.156
11.3646 37.128 0.155
11.3698 37.010 0.155
11.3749 37.422 0.156
11.3800 37.492 0.156
11.3851 37.434 0.156
11.3902 37.704 0.157
11.3953 37.294 0.156
11.4004 37.634 0.157
11.4055 37.466 0.156
11.4106 37.273 0.156
11.4157 37.548 0.156
11.4208 37.496 0.156
11.4259 37.444 0.156
11.4310 38.054 0.157
11.4361 37.691 0.157
11.4412 37.493 0.156
11.4463 37.585 0.156
11.4514 37.717 0.157
11.4565 37.180 0.156
11.4616 37.880 0.157
11.4667 37.594 0.156
11.4718 37.356 0.156
11.4769 38.023 0.157
11.4820 37.549 0.156
11.4871 37.421 0.156
11.4922 37.777 0.157
11.4973 37.924 0.157
11.5024 37.448 0.156
11.5076 37.967 0.157
11.5127 37.717 0.157
11.5178 37.607 0.156
11.5229 38.093 0.157
11.5280 37.891 0.157
11.5331 37.435 0.156
11.5382 38.108 0.158
11.5433 38.127 0.158
11.5484 37.827 0.157
11.5535 38.110 0.158
11.5586 38.246 0.158
11.5637 37.468 0.156
11.5688 37.976 0.157
11.5739 38.044 0.157
11.5790 37.509 0.156
11.5841 37.965 0.157
11.5892 38.039 0.157
11.5943 37.798 0.157
11.5994 38.295 0.158
11.6045 37.597 0.156
11.6096 38.002 0.157
11.6147 38.370 0.158
11.6198 38.351 0.158
11.6249 37.907 0.157
11.6300 38.353 0.158
11.6351 38.298 0.158
11.6402 38.072 0.157
11.6454 38.504 0.158
11.6505 38.576 0.158
11.6556 38.120 0.158
11.6607 38.137 0.158
11.6658 38.437 0.158
11.6709 38.037 0.157
11.6760 38.484 0.158
11.6811 38.219 0.158
11.6862 37.908 0.157
11.6913 38.407 0.158
11.6964 38.473 0.158
11.7015 38.241 0.158
11.7066 38.403 0.158
11.7117 38.515 0.158
11.7168 38.194 0.158
11.7219 38.670 0.159
11.7270 38.538 0.158
11.7321 38.074 0.157
11.7372 38.477 0.158
11.7423 38.455 0.158
11.7474 38.109 0.158
11.7525 38.852 0.159
11.7576 38.796 0.159
11.7627 37.868 0.157
11.7678 38.852 0.159
11.7729 38.835 0.159
11.7780 38.393 0.158
11.7832 38.999 0.159
11.7883 38.488 0.158
11.7934 38.264 0.158
11.7985 38.910 0.159
11.8036 39.034 0.159
11.8087 38.475 0.158
11.8138 38.980 0.159
11.8189 38.885 0.159
11.8240 38.361 0.158
11.8291 39.010 0.159
11.8342 38.710 0.159
11.8393 38.602 0.159
11.8444 38.926 0.159
11.8495 38.650 0.159
11.8546 38.729 0.159
11.8597 39.066 0.159
11.8648 38.885 0.159
11.8699 38.580 0.158
11.8750 38.869 0.159
11.8801 38.710 0.159
11.8852 38.421 0.158
11.8903 39.323 0.160
11.8954 38.867 0.159
11.9005 38.428 0.158
11.9056 38.921 0.159
11.9107 39.117 0.160
11.9158 38.696 0.159
11.9210 39.393 0.160
11.9261 38.859 0.159
11.9312 38.657 0.159
11.9363 39.424 0.160
11.9414 39.279 0.160
11.9465 39.019 0.159
11.9516 39.304 0.160
11.9567 39.250 0.160
11.9618 38.863 0.159
11.9669 39.406 0.160
11.9720 39.344 0.160
11.9771 39.205 0.160
11.9822 38.886 0.159
11.9873 39.128 0.160
11.9924 39.225 0.160
11.9975 39.699 0.161
12.0026 39.643 0.161
12.0077 38.766 0.159
12.0128 39.844 0.161
12.0179 39.419 0.160
12.0230 39.572 0.161
12.0281 39.434 0.160
12.0332 39.336 0.160
12.0383 39.374 0.160
12.0434 39.417 0.160
12.0485 39.375 0.160
12.0536 39.591 0.161
12.0588 39.461 0.160
12.0639 39.640 0.161
12.0690 39.295 0.160
12.0741 39.609 0.161
12.0792 39.596 0.161
12.0843 39.263 0.160
12.0894 39.712 0.161
12.0945 39.607 0.161
12.0996 39.468 0.160
12.1047 39.615 0.161
12.1098 39.598 0.161
12.1149 39.695 0.161
12.1200 39.527 0.160
12.1251 39.881 0.161
12.1302 39.371 0.160
12.1353 39.617 0.161
12.1404 40.163 0.162
12.1455 39.803 0.161
12.1506 39.597 0.161
12.1557 39.757 0.161
12.1608 39.803 0.161
12.1659 39.437 0.160
12.1710 39.887 0.161
12.1761 39.796 0.161
12.1812 39.629 0.161
12.1863 40.077 0.162
12.1914 39.779 0.161
12.1966 39.778 0.161
12.2017 39.607 0.161
12.2068 39.938 0.161
12.2119 39.899 0.161
12.2170 39.906 0.161
12.2221 39.971 0.161
12.2272 39.822 0.161
12.2323 40.018 0.161
12.2374 39.907 0.161
12.2425 39.748 0.161
12.2476 40.143 0.162
12.2527 39.993 0.161
12.2578 39.790 0.161
12.2629 40.118 0.162
12.2680 39.964 0.161
12.2731 39.862 0.161
12.2782 40.299 0.162
12.2833 40.271 0.162
12.2884 39.775 0.161
12.2935 40.009 0.161
12.2986 40.094 0.162
12.3037 39.699 0.161
12.3088 40.141 0.162
12.3139 39.982 0.161
12.3190 39.876 0.161
12.3241 40.314 0.162
12.3292 40.559 0.162
12.3344 40.014 0.161
12.3395 40.176 0.162
12.3446 40.124 0.162
12.3497 39.743 0.161
12.3548 40.324 0.162
12.3599 40.306 0.162
12.3650 40.083 0.162
12.3701 40.105 0.162
12.3752 40.327 0.162
12.3803 40.101 0.162
12.3854 40.438 0.162
12.3905 40.129 0.162
12.3956 40.153 0.162
12.4007 40.471 0.162
12.4058 40.428 0.162
12.4109 39.989 0.161
12.4160 40.164 0.162
12.4211 40.066 0.162
12.4262 40.003 0.161
12.4313 40.814 0.163
12.4364 40.361 0.162
12.4415 39.859 0.161
12.4466 40.261 0.162
12.4517 40.411 0.162
12.4568 40.466 0.162
12.4619 40.581 0.163
12.4670 40.211 0.162
12.4722 40.109 0.162
12.4773 40.483 0.162
12.4824 40.419 0.162
12.4875 39.872 0.161
12.4926 40.523 0.162
12.4977 40.142 0.162
12.5028 40.071 0.162
12.5079 40.331 0.162
12.5130 40.440 0.162
12.5181 40.050 0.161
12.5232 40.445 0.162
12.5283 40.305 0.162
12.5334 39.908 0.161
12.5385 40.590 0.163
12.5436 40.300 0.162
12.5487 40.154 0.162
12.5538 40.531 0.162
12.5589 40.305 0.162
12.5640 40.074 0.162
12.5691 40.446 0.162
12.5742 40.229 0.162
12.5793 40.085 0.162
12.5844 40.673 0.163
12.5895 40.593 0.163
12.5946 39.964 0.161
12.5997 40.449 0.162
12.6048 40.641 0.163
12.6100 40.246 0.162
12.6151 40.540 0.162
12.6202 40.292 0.162
12.6253 40.396 0.162
12.6304 40.481 0.162
12.6355 40.327 0.162
12.6406 40.103 0.162
12.6457 40.383 0.162
12.6508 40.335 0.162
12.6559 40.050 0.161
12.6610 40.817 0.163
12.6661 40.782 0.163
12.6712 40.174 0.162
12.6763 40.510 0.162
12.6814 40.483 0.162
12.6865 40.199 0.162
12.6916 40.836 0.163
12.6967 40.932 0.163
12.7018 40.181 0.162
12.7069 40.594 0.163
12.7120 40.384 0.162
12.7171 40.365 0.162
12.7222 40.621 0.163
12.7273 40.773 0.163
12.7324 40.223 0.162
12.7375 40.598 0.163
12.7426 40.471 0.162
12.7478 40.312 0.162
12.7529 40.490 0.162
12.7580 40.378 0.162
12.7631 40.269 0.162
12.7682 40.557 0.162
12.7733 40.500 0.162
12.7784 40.258 0.162
12.7835 40.488 0.162
12.7886 40.480 0.162
12.7937 40.322 0.162
12.7988 40.732 0.163
12.8039 40.712 0.163
12.8090 40.249 0.162
12.8141 40.456 0.162
12.8192 40.507 0.162
12.8243 40.225 0.162
12.8294 40.645 0.163
12.8345 40.630 0.163
12.8396 40.036 0.161
12.8447 40.324 0.162
12.8498 40.684 0.163
12.8549 39.913 0.161
12.8600 40.664 0.163
12.8651 40.452 0.162
12.8702 40.051 0.161
12.8753 40.495 0.162
12.8804 40.516 0.162
12.8856 40.117 0.162
12.8907 40.407 0.162
12.8958 40.332 0.162
12.9009 39.912 0.161
12.9060 40.370 0.162
12.9111 40.438 0.162
12.9162 39.784 0.161
12.9213 40.432 0.162
12.9264 40.449 0.162
12.9315 40.181 0.162
12.9366 40.559 0.162
12.9417 40.497 0.162
12.9468 40.039 0.161
12.9519 40.449 0.162
12.9570 40.417 0.162
12.9621 39.934 0.161
12.9672 40.635 0.163
12.9723 40.197 0.162
12.9774 39.503 0.160
12.9825 40.285 0.162
12.9876 39.904 0.161
12.9927 39.789 0.161
12.9978 40.160 0.162
13.0029 40.104 0.162
13.0080 39.566 0.160
13.0131 40.090 0.162
13.0182 40.229 0.162
13.0234 39.479 0.160
13.0285 40.309 0.162
13.0336 40.215 0.162
13.0387 39.768 0.161
13.0438 40.090 0.162
13.0489 40.018 0.161
13.0540 39.918 0.161
13.0591 39.968 0.161
13.0642 40.170 0.162
13.0693 39.714 0.161
13.0744 40.303 0.162
13.0795 39.893 0.161
13.0846 39.533 0.160
13.0897 40.072 0.162
13.0948 39.813 0.161
13.0999 39.676 0.161
13.1050 39.902 0.161
13.1101 39.667 0.161
13.1152 39.878 0.161
13.1203 39.849 0.161
13.1254 39.855 0.161
13.1305 39.617 0.161
13.1356 39.848 0.161
13.1407 40.204 0.162
13.1458 39.815 0.161
13.1509 39.953 0.161
13.1560 39.926 0.161
13.1612 39.521 0.160
13.1663 39.790 0.161
13.1714 40.094 0.162
13.1765 39.762 0.161
13.1816 39.574 0.161
13.1867 39.717 0.161
13.1918 39.463 0.160
13.1969 39.601 0.161
13.2020 39.568 0.161
13.2071 39.609 0.161
13.2122 39.433 0.160
13.2173 40.081 0.162
13.2224 39.531 0.160
13.2275 39.266 0.160
13.2326 39.920 0.161
13.2377 39.666 0.161
13.2428 39.493 0.160
13.2479 39.533 0.160
13.2530 39.314 0.160
13.2581 39.740 0.161
13.2632 39.721 0.161
13.2683 39.348 0.160
13.2734 39.354 0.160
13.2785 39.622 0.161
13.2836 39.126 0.160
13.2887 39.235 0.160
13.2938 39.571 0.161
13.2990 39.243 0.160
13.3041 39.370 0.160
13.3092 39.370 0.160
13.3143 39.324 0.160
13.3194 39.124 0.160
13.3245 39.443 0.160
13.3296 39.393 0.160
13.3347 39.153 0.160
13.3398 39.216 0.160
13.3449 39.349 0.160
13.3500 38.956 0.159
13.3551 39.204 0.160
13.3602 39.069 0.159
13.3653 39.180 0.160
13.3704 39.378 0.160
13.3755 38.900 0.159
13.3806 39.214 0.160
13.3857 38.972 0.159
13.3908 39.107 0.160
13.3959 38.997 0.159
13.4010 38.855 0.159
13.4061 39.021 0.159
13.4112 38.484 0.158
13.4163 38.874 0.159
13.4214 38.987 0.159
13.4265 38.640 0.159
13.4316 39.145 0.160
13.4368 39.028 0.159
13.4419 38.534 0.158
13.4470 38.987 0.159
13.4521 38.789 0.159
13.4572 38.227 0.158
13.4623 38.773 0.159
13.4674 38.686 0.159
13.4725 38.665 0.159
13.4776 38.658 0.159
13.4827 38.665 0.159
13.4878 38.227 0.158
13.4929 38.841 0.159
13.4980 38.742 0.159
13.5031 38.516 0.158
13.5082 38.693 0.159
13.5133 38.752 0.159
13.5184 38.261 0.158
13.5235 38.457 0.158
13.5286 38.413 0.158
13.5337 38.198 0.158
13.5388 38.597 0.159
13.5439 38.321 0.158
13.5490 38.040 0.157
13.5541 38.410 0.158
13.5592 38.620 0.159
13.5643 37.785 0.157
13.5694 38.499 0.158
13.5746 38.298 0.158
13.5797 38.197 0.158
13.5848 38.665 0.159
13.5899 38.300 0.158
13.5950 38.063 0.157
13.6001 38.286 0.158
13.6052 38.214 0.158
13.6103 37.900 0.157
13.6154 38.117 0.158
13.6205 38.135 0.158
13.6256 37.575 0.156
13.6307 38.221 0.158
13.6358 37.974 0.157
13.6409 37.824 0.157
13.6460 38.028 0.157
13.6511 38.069 0.157
13.6562 37.628 0.157
13.6613 37.949 0.157
13.6664 37.753 0.157
13.6715 37.482 0.156
13.6766 37.745 0.157
13.6817 37.954 0.157
13.6868 37.419 0.156
13.6919 37.904 0.157
13.6970 37.842 0.157
13.7021 37.285 0.156
13.7072 37.979 0.157
13.7124 37.727 0.157
13.7175 37.301 0.156
13.7226 38.023 0.157
13.7277 37.548 0.156
13.7328 37.346 0.156
13.7379 37.641 0.157
13.7430 37.733 0.157
13.7481 37.389 0.156
13.7532 37.299 0.156
13.7583 37.096 0.155
13.7634 37.200 0.156
13.7685 37.484 0.156
13.7736 37.261 0.156
13.7787 37.177 0.156
13.7838 37.301 0.156
13.7889 37.416 0.156
13.7940 37.194 0.156
13.7991 37.368 0.156
13.8042 37.453 0.156
13.8093 36.792 0.155
13.8144 37.113 0.155
13.8195 37.188 0.156
13.8246 36.839 0.155
13.8297 37.363 0.156
13.8348 36.801 0.155
13.8399 36.628 0.154
13.8450 37.035 0.155
13.8502 36.915 0.155
13.8553 36.715 0.155
13.8604 36.962 0.155
13.8655 36.983 0.155
13.8706 36.544 0.154
13.8757 37.031 0.155
13.8808 37.013 0.155
13.8859 36.420 0.154
13.8910 36.849 0.155
13.8961 36.873 0.155
13.9012 36.378 0.154
13.9063 36.809 0.155
13.9114 36.559 0.154
13.9165 36.360 0.154
13.9216 36.471 0.154
13.9267 36.807 0.155
13.9318 36.115 0.153
13.9369 36.632 0.154
13.9420 36.542 0.154
13.9471 36.180 0.153
13.9522 36.735 0.155
13.9573 36.182 0.153
13.9624 36.023 0.153
13.9675 36.323 0.154
13.9726 36.414 0.154
13.9777 35.882 0.153
13.9828 36.025 0.153
13.9880 36.049 0.153
13.9931 35.549 0.152
13.9982 36.122 0.153
14.0033 36.178 0.153
14.0084 35.906 0.153
14.0135 35.936 0.153
14.0186 35.987 0.153
14.0237 35.803 0.153
14.0288 35.954 0.153
14.0339 35.854 0.153
14.0390 35.749 0.153
14.0441 35.645 0.152
14.0492 35.990 0.153
14.0543 35.669 0.152
14.0594 35.925 0.153
14.0645 35.942 0.153
14.0696 35.665 0.152
14.0747 35.775 0.153
14.0798 35.630 0.152
14.0849 35.376 0.152
14.0900 35.548 0.152
14.0951 35.646 0.152
14.1002 35.313 0.152
14.1053 35.719 0.152
14.1104 35.490 0.152
14.1155 35.283 0.152
14.1206 35.781 0.153
14.1258 35.565 0.152
14.1309 35.171 0.151
14.1360 35.393 0.152
14.1411 35.448 0.152
14.1462 35.008 0.151
14.1513 35.077 0.151
14.1564 35.101 0.151
14.1615 34.829 0.151
14.1666 35.222 0.151
14.1717 34.979 0.151
14.1768 34.826 0.151
14.1819 35.255 0.152
14.1870 35.150 0.151
14.1921 34.501 0.150
14.1972 35.002 0.151
14.2023 34.797 0.151
14.2074 34.846 0.151
14.2125 34.964 0.151
14.2176 34.964 0.151
14.2227 34.654 0.150
14.2278 35.042 0.151
14.2329 35.174 0.151
14.2380 34.346 0.150
14.2431 35.021 0.151
14.2482 34.792 0.151
14.2533 34.243 0.149
14.2584 34.520 0.150
14.2636 34.650 0.150
14.2687 34.480 0.150
14.2738 34.544 0.150
14.2789 34.621 0.150
14.2840 34.206 0.149
14.2891 34.499 0.150
14.2942 34.322 0.149
14.2993 34.335 0.150
14.3044 34.486 0.150
14.3095 34.064 0.149
14.3146 33.859 0.148
14.3197 34.096 0.149
14.3248 34.270 0.149
14.3299 34.131 0.149
14.3350 34.225 0.149
14.3401 34.160 0.149
14.3452 34.138 0.149
14.3503 33.934 0.149
14.3554 34.082 0.149
14.3605 33.962 0.149
14.3656 34.007 0.149
14.3707 33.729 0.148
14.3758 33.815 0.148
14.3809 33.894 0.149
14.3860 33.746 0.148
14.3911 33.697 0.148
14.3962 33.767 0.148
14.4014 33.859 0.148
14.4065 33.377 0.147
14.4116 33.583 0.148
14.4167 33.838 0.148
14.4218 33.511 0.148
14.4269 33.313 0.147
14.4320 33.398 0.147
14.4371 33.455 0.148
14.4422 33.335 0.147
14.4473 33.363 0.147
14.4524 33.732 0.148
14.4575 33.339 0.147
14.4626 33.423 0.148
14.4677 32.900 0.146
14.4728 33.230 0.147
14.4779 33.375 0.147
14.4830 33.385 0.147
14.4881 33.117 0.147
14.4932 33.230 0.147
14.4983 33.001 0.147
14.5034 33.048 0.147
14.5085 33.419 0.148
14.5136 32.732 0.146
14.5187 32.888 0.146
14.5238 33.066 0.147
14.5289 33.224 0.147
14.5340 32.795 0.146
14.5392 33.098 0.147
14.5443 32.796 0.146
14.5494 32.533 0.146
14.5545 33.008 0.147
14.5596 32.632 0.146
14.5647 32.464 0.145
14.5698 32.684 0.146
14.5749 32.741 0.146
14.5800 32.481 0.145
14.5851 32.639 0.146
14.5902 32.531 0.146
14.5953 32.316 0.145
14.6004 32.863 0.146
14.6055 32.505 0.145
14.6106 32.317 0.145
14.6157 32.818 0.146
14.6208 32.503 0.145
14.6259 32.234 0.145
14.6310 32.337 0.145
14.6361 32.598 0.146
14.6412 32.179 0.145
14.6463 32.456 0.145
14.6514 32.538 0.146
14.6565 32.128 0.145
14.6616 32.493 0.145
14.6667 32.544 0.146
14.6718 31.846 0.144
14.6770 32.066 0.144
14.6821 31.923 0.144
14.6872 31.612 0.143
14.6923 32.305 0.145
14.6974 32.034 0.144
14.7025 31.773 0.144
14.7076 31.958 0.144
14.7127 31.914 0.144
14.7178 31.853 0.144
14.7229 31.768 0.144
14.7280 31.694 0.144
14.7331 31.469 0.143
14.7382 31.977 0.144
14.7433 31.846 0.144
14.7484 31.556 0.143
14.7535 31.708 0.144
14.7586 31.561 0.143
14.7637 31.428 0.143
14.7688 31.475 0.143
14.7739 31.694 0.144
14.7790 31.167 0.142
14.7841 31.542 0.143
14.7892 31.373 0.143
14.7943 31.238 0.143
14.7994 31.617 0.143
14.8045 31.488 0.143
14.8096 31.064 0.142
14.8148 31.230 0.143
14.8199 31.267 0.143
14.8250 30.848 0.142
14.8301 31.257 0.143
14.8352 31.398 0.143
14.8403 30.734 0.141
14.8454 31.245 0.143
14.8505 31.042 0.142
14.8556 30.885 0.142
14.8607 30.992 0.142
14.8658 30.684 0.141
14.8709 30.827 0.142
14.8760 31.059 0.142
14.8811 30.779 0.142
14.8862 30.398 0.141
14.8913 30.920 0.142
14.8964 30.850 0.142
14.9015 30.325 0.141
14.9066 31.056 0.142
14.9117 30.746 0.141
14.9168 30.474 0.141
14.9219 30.668 0.141
14.9270 30.947 0.142
14.9321 30.211 0.140
14.9372 30.768 0.142
14.9423 30.779 0.142
14.9474 30.400 0.141
14.9526 30.676 0.141
14.9577 30.649 0.141
14.9628 30.173 0.140
14.9679 30.620 0.141
14.9730 30.107 0.140
14.9781 30.036 0.140
14.9832 30.333 0.141
14.9883 30.318 0.140
14.9934 30.043 0.140
14.9985 30.284 0.140
15.0036 30.180 0.140
15.0087 30.125 0.140
15.0138 30.330 0.141
15.0189 29.854 0.139
15.0240 29.875 0.139
15.0291 30.174 0.140
15.0342 30.236 0.140
15.0393 29.952 0.140
15.0444 29.872 0.139
15.0495 30.197 0.140
15.0546 29.856 0.139
15.0597 29.848 0.139
15.0648 29.934 0.140
15.0699 29.807 0.139
15.0750 29.858 0.139
15.0801 29.840 0.139
15.0852 29.516 0.139
15.0904 30.143 0.140
15.0955 29.960 0.140
15.1006 29.672 0.139
15.1057 29.555 0.139
15.1108 29.451 0.138
15.1159 29.536 0.139
15.1210 29.532 0.139
15.1261 29.585 0.139
15.1312 29.235 0.138
15.1363 29.823 0.139
15.1414 29.603 0.139
15.1465 29.372 0.138
15.1516 29.588 0.139
15.1567 29.292 0.138
15.1618 29.214 0.138
15.1669 29.366 0.138
15.1720 29.684 0.139
15.1771 29.168 0.138
15.1822 29.367 0.138
15.1873 29.652 0.139
15.1924 28.859 0.137
15.1975 29.125 0.138
15.2026 29.172 0.138
15.2077 29.147 0.138
15.2128 29.308 0.138
15.2179 29.102 0.138
15.2230 28.892 0.137
15.2282 29.160 0.138
15.2333 29.047 0.138
15.2384 28.962 0.137
15.2435 28.924 0.137
15.2486 28.947 0.137
15.2537 28.596 0.136
15.2588 28.770 0.137
15.2639 28.623 0.137
15.2690 28.617 0.136
15.2741 28.827 0.137
15.2792 28.801 0.137
15.2843 28.489 0.136
15.2894 28.911 0.137
15.2945 28.661 0.137
15.2996 28.495 0.136
15.3047 28.917 0.137
15.3098 28.839 0.137
15.3149 28.479 0.136
15.3200 28.527 0.136
15.3251 28.686 0.137
15.3302 28.219 0.136
15.3353 28.681 0.137
15.3404 28.508 0.136
15.3455 28.370 0.136
15.3506 28.386 0.136
15.3557 28.376 0.136
15.3608 28.362 0.136
15.3660 28.246 0.136
15.3711 28.443 0.136
15.3762 28.308 0.136
15.3813 28.348 0.136
15.3864 28.337 0.136
15.3915 28.025 0.135
15.3966 28.281 0.136
15.4017 28.273 0.136
15.4068 28.213 0.136
15.4119 27.947 0.135
15.4170 28.180 0.135
15.4221 28.089 0.135
15.4272 28.230 0.136
15.4323 28.118 0.135
15.4374 28.083 0.135
15.4425 27.840 0.135
15.4476 28.154 0.135
15.4527 27.963 0.135
15.4578 28.016 0.135
15.4629 27.946 0.135
15.4680 27.766 0.134
15.4731 27.709 0.134
15.4782 28.221 0.136
15.4833 27.682 0.134
15.4884 27.725 0.134
15.4935 27.583 0.134
15.4986 27.836 0.135
15.5038 27.813 0.135
15.5089 27.656 0.134
15.5140 27.743 0.134
15.5191 27.708 0.134
15.5242 27.747 0.134
15.5293 27.659 0.134
15.5344 27.743 0.134
15.5395 27.740 0.134
15.5446 27.447 0.134
15.5497 27.783 0.134
15.5548 27.701 0.134
15.5599 27.446 0.134
15.5650 27.388 0.134
15.5701 27.614 0.134
15.5752 27.324 0.133
15.5803 27.473 0.134
15.5854 27.557 0.134
15.5905 27.445 0.134
15.5956 27.425 0.134
15.6007 27.615 0.134
15.6058 27.390 0.134
15.6109 27.307 0.133
15.6160 27.540 0.134
15.6211 27.437 0.134
15.6262 27.268 0.133
15.6313 27.568 0.134
15.6364 27.364 0.133
15.6416 27.293 0.133
15.6467 27.685 0.134
15.6518 27.305 0.133
15.6569 27.363 0.133
15.6620 27.366 0.133
15.6671 27.462 0.134
15.6722 27.010 0.133
15.6773 27.097 0.133
15.6824 27.193 0.133
15.6875 27.171 0.133
15.6926 27.014 0.133
15.6977 27.185 0.133
15.7028 27.222 0.133
15.7079 27.307 0.133
15.7130 27.229 0.133
15.7181 27.007 0.133
15.7232 27.299 0.133
15.7283 27.124 0.133
15.7334 26.986 0.133
15.7385 27.087 0.133
15.7436 27.590 0.134
15.7487 27.114 0.133
15.7538 27.266 0.133
15.7589 27.096 0.133
15.7640 27.106 0.133
15.7691 27.184 0.133
15.7742 27.466 0.134
15.7794 27.356 0.133
15.7845 27.561 0.134
15.7896 27.555 0.134
15.7947 27.116 0.133
15.7998 27.689 0.134
15.8049 27.514 0.134
15.8100 27.464 0.134
15.8151 27.663 0.134
15.8202 27.626 0.134
15.8253 27.602 0.134
15.8304 27.835 0.135
15.8355 27.585 0.134
15.8406 27.373 0.133
15.8457 27.527 0.134
15.8508 27.588 0.134
15.8559 27.348 0.133
15.8610 27.925 0.135
15.8661 27.840 0.135
15.8712 27.669 0.134
15.8763 27.643 0.134
15.8814 27.603 0.134
15.8865 27.534 0.134
15.8916 27.758 0.134
15.8967 27.775 0.134
15.9018 27.502 0.134
15.9069 27.764 0.134
15.9120 27.412 0.134
15.9172 27.338 0.133
15.9223 27.974 0.135
15.9274 27.876 0.135
15.9325 27.632 0.134
15.9376 27.995 0.135
15.9427 27.910 0.135
15.9478 27.687 0.134
15.9529 27.778 0.134
15.9580 27.725 0.134
15.9631 27.713 0.134
15.9682 27.840 0.135
15.9733 27.986 0.135
15.9784 27.661 0.134
15.9835 27.899 0.135
15.9886 27.792 0.135
15.9937 27.766 0.134
15.9988 28.224 0.136
16.0039 28.090 0.135
16.0090 27.581 0.134
16.0141 27.881 0.135
16.0192 27.992 0.135
16.0243 28.102 0.135
16.0294 28.275 0.136
16.0345 28.480 0.136
16.0396 28.394 0.136
16.0447 28.684 0.137
16.0498 28.401 0.136
16.0550 28.339 0.136
16.0601 28.878 0.137
16.0652 28.865 0.137
16.0703 28.412 0.136
16.0754 29.086 0.138
16.0805 28.918 0.137
16.0856 28.682 0.137
16.0907 29.240 0.138
16.0958 28.928 0.137
16.1009 28.493 0.136
16.1060 29.011 0.137
16.1111 28.881 0.137
16.1162 28.715 0.137
16.1213 28.735 0.137
16.1264 28.623 0.137
16.1315 28.677 0.137
16.1366 28.767 0.137
16.1417 28.706 0.137
16.1468 28.284 0.136
16.1519 28.495 0.136
16.1570 28.395 0.136
16.1621 28.156 0.135
16.1672 28.572 0.136
16.1723 28.393 0.136
16.1774 28.008 0.135
16.1825 28.217 0.136
16.1876 28.321 0.136
16.1928 28.152 0.135
16.1979 28.313 0.136
16.2030 28.061 0.135
16.2081 28.011 0.135
16.2132 28.467 0.136
16.2183 28.271 0.136
16.2234 28.044 0.135
16.2285 28.285 0.136
16.2336 28.179 0.135
16.2387 27.794 0.135
16.2438 28.106 0.135
16.2489 27.993 0.135
16.2540 27.952 0.135
16.2591 28.041 0.135
16.2642 28.113 0.135
16.2693 27.990 0.135
16.2744 28.057 0.135
16.2795 27.934 0.135
16.2846 27.904 0.135
16.2897 28.368 0.136
16.2948 28.550 0.136
16.2999 28.080 0.135
16.3050 28.357 0.136
16.3101 28.544 0.136
16.3152 28.490 0.136
16.3203 28.792 0.137
16.3254 28.399 0.136
16.3306 28.639 0.137
16.3357 29.193 0.138
16.3408 28.851 0.137
16.3459 28.785 0.137
16.3510 29.154 0.138
16.3561 29.279 0.138
16.3612 29.478 0.139
16.3663 29.689 0.139
16.3714 29.813 0.139
16.3765 30.055 0.140
16.3816 30.530 0.141
16.3867 30.944 0.142
16.3918 30.792 0.142
16.3969 31.438 0.143
16.4020 31.865 0.144
16.4071 32.035 0.144
16.4122 32.937 0.146
16.4173 33.373 0.147
16.4224 33.980 0.149
16.4275 35.089 0.151
16.4326 35.457 0.152
16.4377 36.527 0.154
16.4428 37.721 0.157
16.4479 39.107 0.160
16.4530 39.863 0.161
16.4581 42.334 0.166
16.4632 43.516 0.168
16.4684 45.573 0.172
16.4735 48.164 0.177
16.4786 50.634 0.182
16.4837 52.903 0.186
16.4888 55.835 0.191
16.4939 59.380 0.197
16.4990 62.410 0.202
16.5041 65.665 0.207
16.5092 68.870 0.212
16.5143 71.303 0.215
16.5194 73.489 0.219
16.5245 75.147 0.221
16.5296 74.810 0.221
16.5347 74.859 0.221
16.5398 72.987 0.218
16.5449 69.324 0.212
16.5500 66.977 0.209
16.5551 63.081 0.203
16.5602 59.373 0.197
16.5653 56.481 0.192
16.5704 53.746 0.187
16.5755 51.580 0.183
16.5806 50.486 0.181
16.5857 49.557 0.180
16.5908 49.122 0.179
16.5959 49.528 0.180
16.6010 50.030 0.180
16.6062 50.545 0.181
16.6113 51.225 0.183
16.6164 52.174 0.184
16.6215 52.449 0.185
16.6266 52.443 0.185
16.6317 52.396 0.185
16.6368 51.161 0.183
16.6419 50.061 0.181
16.6470 48.372 0.177
16.6521 45.700 0.172
16.6572 43.290 0.168
16.6623 41.353 0.164
16.6674 38.679 0.159
16.6725 36.964 0.155
16.6776 35.432 0.152
16.6827 33.990 0.149
16.6878 32.968 0.147
16.6929 32.249 0.145
16.6980 31.199 0.143
16.7031 30.600 0.141
16.7082 30.221 0.140
16.7133 29.758 0.139
16.7184 29.395 0.138
16.7235 29.316 0.138
16.7286 29.148 0.138
16.7337 28.938 0.137
16.7388 28.684 0.137
16.7440 28.507 0.136
16.7491 28.444 0.136
16.7542 28.689 0.137
16.7593 28.413 0.136
16.7644 28.555 0.136
16.7695 28.405 0.136
16.7746 28.126 0.135
16.7797 28.174 0.135
16.7848 28.230 0.136
16.7899 28.447 0.136
16.7950 28.141 0.135
16.8001 28.201 0.135
16.8052 28.008 0.135
16.8103 27.859 0.135
16.8154 27.775 0.134
16.8205 28.197 0.135
16.8256 27.655 0.134
16.8307 28.185 0.135
16.8358 27.889 0.135
16.8409 27.552 0.134
16.8460 27.667 0.134
16.8511 27.808 0.135
16.8562 27.654 0.134
16.8613 28.042 0.135
16.8664 27.542 0.134
16.8715 27.273 0.133
16.8767 27.394 0.134
16.8818 27.389 0.134
16.8869 27.252 0.133
16.8920 27.620 0.134
16.8971 27.321 0.133
16.9022 27.388 0.134
16.9073 27.376 0.134
16.9124 27.482 0.134
16.9175 27.141 0.133
16.9226 27.360 0.133
16.9277 27.105 0.133
16.9328 27.275 0.133
16.9379 27.571 0.134
16.9430 27.305 0.133
16.9481 27.294 0.133
16.9532 27.587 0.134
16.9583 27.572 0.134
16.9634 26.971 0.133
16.9685 27.436 0.134
16.9736 27.560 0.134
16.9787 27.299 0.133
16.9838 27.515 0.134
16.9889 27.678 0.134
16.9940 27.574 0.134
16.9991 27.636 0.134
17.0042 27.841 0.135
17.0093 27.398 0.134
17.0145 28.106 0.135
17.0196 27.880 0.135
17.0247 28.073 0.135
17.0298 28.467 0.136
17.0349 28.688 0.137
17.0400 28.605 0.136
17.0451 29.117 0.138
17.0502 29.370 0.138
17.0553 29.561 0.139
17.0604 30.143 0.140
17.0655 30.439 0.141
17.0706 30.465 0.141
17.0757 31.572 0.143
17.0808 31.887 0.144
17.0859 32.273 0.145
17.0910 33.216 0.147
17.0961 33.608 0.148
17.1012 33.688 0.148
17.1063 34.598 0.150
17.1114 34.500 0.150
17.1165 34.186 0.149
17.1216 34.668 0.150
17.1267 34.444 0.150
17.1318 33.535 0.148
17.1369 33.296 0.147
17.1420 33.156 0.147
17.1471 32.514 0.145
17.1523 32.580 0.146
17.1574 32.706 0.146
17.1625 32.424 0.145
17.1676 32.535 0.146
17.1727 33.109 0.147
17.1778 33.442 0.148
17.1829 33.880 0.149
17.1880 34.820 0.151
17.1931 35.118 0.151
17.1982 36.418 0.154
17.2033 38.134 0.158
17.2084 38.749 0.159
17.2135 40.056 0.161
17.2186 41.180 0.164
17.2237 42.154 0.166
17.2288 43.727 0.169
17.2339 45.065 0.171
17.2390 45.666 0.172
17.2441 46.940 0.175
17.2492 47.980 0.177
17.2543 47.440 0.176
17.2594 48.497 0.178
17.2645 47.781 0.176
17.2696 46.654 0.174
17.2747 45.905 0.173
17.2798 43.906 0.169
17.2849 41.433 0.164
17.2901 40.253 0.162
17.2952 38.048 0.157
17.3003 36.266 0.154
17.3054 35.637 0.152
17.3105 35.026 0.151
17.3156 34.228 0.149
17.3207 34.215 0.149
17.3258 33.994 0.149
17.3309 34.075 0.149
17.3360 34.861 0.151
17.3411 35.551 0.152
17.3462 35.367 0.152
17.3513 36.445 0.154
17.3564 36.620 0.154
17.3615 36.225 0.154
17.3666 36.952 0.155
17.3717 36.256 0.154
17.3768 35.508 0.152
17.3819 34.758 0.150
17.3870 33.775 0.148
17.3921 32.592 0.146
17.3972 31.951 0.144
17.4023 30.764 0.142
17.4074 29.751 0.139
17.4125 29.090 0.138
17.4176 28.557 0.136
17.4227 27.829 0.135
17.4279 27.573 0.134
17.4330 27.434 0.134
17.4381 26.724 0.132
17.4432 26.839 0.132
17.4483 26.881 0.132
17.4534 26.421 0.131
17.4585 26.817 0.132
17.4636 26.620 0.132
17.4687 26.400 0.131
17.4738 26.515 0.131
17.4789 26.418 0.131
17.4840 26.243 0.131
17.4891 26.149 0.130
17.4942 26.056 0.130
17.4993 25.971 0.130
17.5044 26.322 0.131
17.5095 26.363 0.131
17.5146 26.023 0.130
17.5197 26.490 0.131
17.5248 26.235 0.131
17.5299 25.896 0.130
17.5350 26.030 0.130
17.5401 26.054 0.130
17.5452 25.768 0.130
17.5503 25.973 0.130
17.5554 26.152 0.130
17.5605 25.926 0.130
17.5657 26.206 0.131
17.5708 26.231 0.131
17.5759 25.896 0.130
17.5810 26.199 0.131
17.5861 26.241 0.131
17.5912 25.854 0.130
17.5963 26.183 0.131
17.6014 26.105 0.130
17.6065 25.658 0.129
17.6116 25.867 0.130
17.6167 26.058 0.130
17.6218 25.601 0.129
17.6269 25.917 0.130
17.6320 26.145 0.130
17.6371 25.804 0.130
17.6422 25.790 0.130
17.6473 25.791 0.130
17.6524 25.675 0.129
17.6575 25.757 0.129
17.6626 25.923 0.130
17.6677 25.773 0.130
17.6728 25.934 0.130
17.6779 26.066 0.130
17.6830 25.590 0.129
17.6881 25.852 0.130
17.6932 25.860 0.130
17.6983 25.891 0.130
17.7035 25.998 0.130
17.7086 25.805 0.130
17.7137 25.684 0.129
17.7188 25.676 0.129
17.7239 25.859 0.130
17.7290 25.814 0.130
17.7341 25.813 0.130
17.7392 25.980 0.130
17.7443 25.504 0.129
17.7494 25.643 0.129
17.7545 25.721 0.129
17.7596 25.483 0.129
17.7647 25.617 0.129
17.7698 25.964 0.130
17.7749 25.596 0.129
17.7800 25.710 0.129
17.7851 25.640 0.129
17.7902 25.508 0.129
17.7953 25.581 0.129
17.8004 25.894 0.130
17.8055 25.746 0.129
17.8106 25.393 0.129
17.8157 25.691 0.129
17.8208 25.555 0.129
17.8259 25.450 0.129
17.8310 25.650 0.129
17.8361 25.757 0.129
17.8413 25.399 0.129
17.8464 25.837 0.130
17.8515 25.424 0.129
17.8566 25.374 0.129
17.8617 25.581 0.129
17.8668 25.515 0.129
17.8719 25.458 0.129
17.8770 25.649 0.129
17.8821 25.614 0.129
17.8872 25.306 0.128
17.8923 25.716 0.129
17.8974 25.356 0.128
17.9025 25.294 0.128
17.9076 25.441 0.129
17.9127 25.495 0.129
17.9178 25.326 0.128
17.9229 25.219 0.128
17.9280 25.450 0.129
17.9331 25.410 0.129
17.9382 25.806 0.130
17.9433 25.273 0.128
17.9484 25.374 0.129
17.9535 25.449 0.129
17.9586 25.321 0.128
17.9637 25.399 0.129
17.9688 25.415 0.129
17.9739 25.514 0.129
17.9791 24.999 0.128
17.9842 25.459 0.129
17.9893 25.518 0.129
17.9944 25.031 0.128
17.9995 25.661 0.129
18.0046 25.584 0.129
18.0097 25.023 0.128
18.0148 25.251 0.128
18.0199 25.255 0.128
18.0250 25.333 0.128
18.0301 25.697 0.129
18.0352 25.327 0.128
18.0403 24.965 0.127
18.0454 25.400 0.129
18.0505 25.429 0.129
18.0556 25.051 0.128
18.0607 25.335 0.128
18.0658 25.450 0.129
18.0709 24.944 0.127
18.0760 25.271 0.128
18.0811 25.279 0.128
18.0862 24.929 0.127
18.0913 25.264 0.128
18.0964 25.379 0.129
18.1015 25.020 0.128
18.1066 25.357 0.128
18.1117 25.143 0.128
18.1169 25.115 0.128
18.1220 25.096 0.128
18.1271 25.417 0.129
18.1322 24.794 0.127
18.1373 25.327 0.128
18.1424 25.271 0.128
18.1475 25.126 0.128
18.1526 25.040 0.128
18.1577 24.817 0.127
18.1628 24.850 0.127
18.1679 24.997 0.128
18.1730 25.096 0.128
18.1781 24.835 0.127
18.1832 25.203 0.128
18.1883 25.086 0.128
18.1934 24.844 0.127
18.1985 25.087 0.128
18.2036 25.171 0.128
18.2087 24.798 0.127
18.2138 24.940 0.127
18.2189 25.048 0.128
18.2240 24.689 0.127
18.2291 25.007 0.128
18.2342 24.995 0.128
18.2393 24.832 0.127
18.2444 25.167 0.128
18.2495 24.594 0.127
18.2547 24.941 0.127
18.2598 24.823 0.127
18.2649 24.952 0.127
18.2700 24.805 0.127
18.2751 24.760 0.127
18.2802 24.984 0.128
18.2853 24.452 0.126
18.2904 24.766 0.127
18.2955 24.965 0.127
18.3006 24.557 0.126
18.3057 24.829 0.127
18.3108 24.708 0.127
18.3159 24.545 0.126
18.3210 24.839 0.127
18.3261 24.558 0.126
18.3312 24.321 0.126
18.3363 24.587 0.127
18.3414 24.626 0.127
18.3465 24.564 0.126
18.3516 24.628 0.127
18.3567 24.567 0.126
18.3618 24.325 0.126
18.3669 24.835 0.127
18.3720 24.505 0.126
18.3771 24.549 0.126
18.3822 24.705 0.127
18.3873 24.753 0.127
18.3925 24.273 0.126
18.3976 24.497 0.126
18.4027 24.637 0.127
18.4078 24.466 0.126
18.4129 24.438 0.126
18.4180 24.636 0.127
18.4231 24.098 0.125
18.4282 24.807 0.127
18.4333 24.385 0.126
18.4384 24.079 0.125
18.4435 24.405 0.126
18.4486 24.530 0.126
18.4537 24.324 0.126
18.4588 24.346 0.126
18.4639 24.519 0.126
18.4690 24.163 0.125
18.4741 24.328 0.126
18.4792 24.477 0.126
18.4843 23.988 0.125
18.4894 24.628 0.127
18.4945 24.382 0.126
18.4996 24.107 0.125
18.5047 24.471 0.126
18.5098 24.503 0.126
18.5149 24.117 0.125
18.5200 24.199 0.126
18.5251 24.314 0.126
18.5303 23.956 0.125
18.5354 24.285 0.126
18.5405 24.246 0.126
18.5456 24.110 0.125
18.5507 24.247 0.126
18.5558 24.096 0.125
18.5609 24.215 0.126
18.5660 24.331 0.126
18.5711 24.195 0.126
18.5762 23.842 0.125
18.5813 24.161 0.125
18.5864 24.521 0.126
18.5915 24.092 0.125
18.5966 24.208 0.126
18.6017 24.197 0.126
18.6068 24.059 0.125
18.6119 24.131 0.125
18.6170 24.055 0.125
18.6221 23.769 0.124
18.6272 24.240 0.126
18.6323 24.163 0.125
18.6374 23.787 0.124
18.6425 23.945 0.125
18.6476 24.003 0.125
18.6527 23.572 0.124
18.6578 23.781 0.124
18.6629 23.931 0.125
18.6681 23.640 0.124
18.6732 23.677 0.124
18.6783 24.016 0.125
18.6834 23.684 0.124
18.6885 23.949 0.125
18.6936 23.879 0.125
18.6987 23.839 0.125
18.7038 23.795 0.124
18.7089 23.867 0.125
18.7140 23.596 0.124
18.7191 23.899 0.125
18.7242 24.078 0.125
18.7293 23.620 0.124
18.7344 23.754 0.124
18.7395 23.919 0.125
18.7446 23.559 0.124
18.7497 23.758 0.124
18.7548 23.588 0.124
18.7599 23.609 0.124
18.7650 23.615 0.124
18.7701 23.829 0.125
18.7752 23.669 0.124
18.7803 23.885 0.125
18.7854 23.819 0.125
18.7905 23.464 0.124
18.7956 23.684 0.124
18.8007 23.554 0.124
18.8059 23.454 0.124
18.8110 23.512 0.124
18.8161 23.631 0.124
18.8212 23.335 0.123
18.8263 23.712 0.124
18.8314 23.617 0.124
18.8365 23.368 0.123
18.8416 23.742 0.124
18.8467 23.544 0.124
18.8518 23.453 0.124
18.8569 23.626 0.124
18.8620 23.518 0.124
18.8671 23.458 0.124
18.8722 23.512 0.124
18.8773 23.574 0.124
18.8824 23.419 0.123
18.8875 23.245 0.123
18.8926 23.532 0.124
18.8977 23.309 0.123
18.9028 23.048 0.122
18.9079 23.542 0.124
18.9130 23.344 0.123
18.9181 23.264 0.123
18.9232 23.239 0.123
18.9283 23.262 0.123
18.9334 23.516 0.124
18.9385 23.223 0.123
18.9437 23.148 0.123
18.9488 23.310 0.123
18.9539 23.380 0.123
18.9590 23.251 0.123
18.9641 23.178 0.123
18.9692 23.441 0.124
18.9743 23.307 0.123
18.9794 22.991 0.122
18.9845 23.247 0.123
18.9896 23.344 0.123
18.9947 23.089 0.123
18.9998 23.255 0.123
19.0049 23.007 0.122
19.0100 23.171 0.123
19.0151 23.379 0.123
19.0202 22.999 0.122
19.0253 22.988 0.122
19.0304 23.209 0.123
19.0355 23.063 0.123
19.0406 22.938 0.122
19.0457 23.288 0.123
19.0508 23.106 0.123
19.0559 23.199 0.123
19.0610 23.085 0.123
19.0661 23.139 0.123
19.0712 23.116 0.123
19.0763 23.089 0.123
19.0815 23.112 0.123
19.0866 22.829 0.122
19.0917 23.318 0.123
19.0968 23.091 0.123
19.1019 22.901 0.122
19.1070 23.174 0.123
19.1121 23.092 0.123
19.1172 23.024 0.122
19.1223 23.288 0.123
19.1274 23.230 0.123
19.1325 22.976 0.122
19.1376 23.365 0.123
19.1427 23.417 0.123
19.1478 23.433 0.124
19.1529 23.730 0.124
19.1580 23.432 0.124
19.1631 23.443 0.124
19.1682 23.822 0.125
19.1733 23.872 0.125
19.1784 23.705 0.124
19.1835 24.057 0.125
19.1886 24.165 0.125
19.1937 24.256 0.126
19.1988 24.516 0.126
19.2039 24.778 0.127
19.2090 24.459 0.126
19.2141 24.871 0.127
19.2193 24.679 0.127
19.2244 24.859 0.127
19.2295 25.326 0.128
19.2346 24.971 0.128
19.2397 24.923 0.127
19.2448 25.303 0.128
19.2499 25.357 0.128
19.2550 25.215 0.128
19.2601 25.401 0.129
19.2652 25.117 0.128
19.2703 25.380 0.129
19.2754 25.320 0.128
19.2805 25.699 0.129
19.2856 25.605 0.129
19.2907 25.715 0.129
19.2958 25.684 0.129
19.3009 25.754 0.129
19.3060 25.659 0.129
19.3111 25.581 0.129
19.3162 25.580 0.129
19.3213 25.789 0.130
19.3264 25.928 0.130
19.3315 26.253 0.131
19.3366 26.391 0.131
19.3417 26.569 0.132
19.3468 26.260 0.131
19.3519 26.960 0.132
19.3571 26.896 0.132
19.3622 26.898 0.132
19.3673 26.932 0.132
19.3724 27.215 0.133
19.3775 27.168 0.133
19.3826 27.536 0.134
19.3877 27.641 0.134
19.3928 27.287 0.133
19.3979 27.665 0.134
19.4030 27.739 0.134
19.4081 27.338 0.133
19.4132 27.745 0.134
19.4183 28.041 0.135
19.4234 27.449 0.134
19.4285 28.274 0.136
19.4336 28.203 0.136
19.4387 27.759 0.134
19.4438 28.007 0.135
19.4489 28.074 0.135
19.4540 27.811 0.135
19.4591 27.846 0.135
19.4642 27.833 0.135
19.4693 27.578 0.134
19.4744 28.187 0.135
19.4795 28.220 0.136
19.4846 27.894 0.135
19.4897 28.100 0.135
19.4949 27.981 0.135
19.5000 27.755 0.134
19.5051 28.082 0.135
19.5102 27.813 0.135
19.5153 27.445 0.134
19.5204 27.795 0.135
19.5255 27.473 0.134
19.5306 27.329 0.133
19.5357 27.281 0.133
19.5408 27.327 0.133
19.5459 27.064 0.133
19.5510 27.148 0.133
19.5561 26.817 0.132
19.5612 26.533 0.131
19.5663 26.775 0.132
19.5714 26.632 0.132
19.5765 26.214 0.131
19.5816 26.592 0.132
19.5867 26.538 0.131
19.5918 26.134 0.130
19.5969 26.319 0.131
19.6020 25.928 0.130
19.6071 25.995 0.130
19.6122 26.061 0.130
19.6173 26.214 0.131
19.6224 25.998 0.130
19.6275 25.809 0.130
19.6327 26.163 0.131
19.6378 25.654 0.129
19.6429 25.862 0.130
19.6480 25.959 0.130
19.6531 25.627 0.129
19.6582 26.010 0.130
19.6633 25.889 0.130
19.6684 25.434 0.129
19.6735 25.688 0.129
19.6786 25.768 0.130
19.6837 25.470 0.129
19.6888 25.792 0.130
19.6939 25.681 0.129
19.6990 25.658 0.129
19.7041 25.827 0.130
19.7092 25.948 0.130
19.7143 25.904 0.130
19.7194 26.274 0.131
19.7245 26.356 0.131
19.7296 25.965 0.130
19.7347 26.669 0.132
19.7398 26.898 0.132
19.7449 26.543 0.131
19.7500 27.076 0.133
19.7551 27.226 0.133
19.7602 27.660 0.134
19.7653 28.236 0.136
19.7705 28.694 0.137
19.7756 28.321 0.136
19.7807 29.290 0.138
19.7858 29.870 0.139
19.7909 30.207 0.140
19.7960 30.919 0.142
19.8011 31.730 0.144
19.8062 32.347 0.145
19.8113 33.809 0.148
19.8164 34.624 0.150
19.8215 35.751 0.153
19.8266 37.154 0.156
19.8317 39.258 0.160
19.8368 40.642 0.163
19.8419 42.887 0.167
19.8470 45.549 0.172
19.8521 47.664 0.176
19.8572 51.436 0.183
19.8623 54.560 0.188
19.8674 57.840 0.194
19.8725 62.069 0.201
19.8776 66.939 0.209
19.8827 71.314 0.215
19.8878 77.137 0.224
19.8929 82.137 0.231
19.8980 87.081 0.238
19.9031 93.721 0.247
19.9083 98.244 0.253
19.9134 101.833 0.257
19.9185 105.503 0.262
19.9236 108.239 0.265
19.9287 108.372 0.266
19.9338 107.993 0.265
19.9389 106.359 0.263
19.9440 101.807 0.257
19.9491 98.852 0.254
19.9542 92.936 0.246
19.9593 86.932 0.238
19.9644 82.131 0.231
19.9695 77.261 0.224
19.9746 71.929 0.216
19.9797 68.167 0.211
19.9848 65.873 0.207
19.9899 62.988 0.203
19.9950 61.452 0.200
20.0001 60.547 0.199
20.0052 60.079 0.198
20.0103 60.340 0.198
20.0154 61.460 0.200
20.0205 62.463 0.202
20.0256 64.174 0.204
20.0307 65.297 0.206
20.0358 66.309 0.208
20.0409 66.602 0.208
20.0461 67.723 0.210
20.0512 66.934 0.209
20.0563 65.913 0.207
20.0614 64.719 0.205
20.0665 61.812 0.201
20.0716 58.994 0.196
20.0767 55.962 0.191
20.0818 52.270 0.184
20.0869 48.858 0.178
20.0920 45.984 0.173
20.0971 42.177 0.166
20.1022 39.355 0.160
20.1073 36.980 0.155
20.1124 34.737 0.150
20.1175 32.354 0.145
20.1226 30.975 0.142
20.1277 29.723 0.139
20.1328 28.125 0.135
20.1379 27.445 0.134
20.1430 26.327 0.131
20.1481 25.586 0.129
20.1532 25.092 0.128
20.1583 24.509 0.126
20.1634 24.265 0.126
20.1685 23.689 0.124
20.1736 23.697 0.124
20.1787 23.040 0.122
20.1839 23.026 0.122
20.1890 22.944 0.122
20.1941 22.835 0.122
20.1992 22.633 0.121
20.2043 22.235 0.120
20.2094 22.210 0.120
20.2145 22.440 0.121
20.2196 21.902 0.119
20.2247 21.652 0.119
20.2298 21.863 0.119
20.2349 21.674 0.119
20.2400 21.230 0.118
20.2451 21.606 0.119
20.2502 21.423 0.118
20.2553 21.033 0.117
20.2604 21.169 0.117
20.2655 21.408 0.118
20.2706 20.929 0.117
20.2757 20.956 0.117
20.2808 20.658 0.116
20.2859 20.814 0.116
20.2910 20.984 0.117
20.2961 20.979 0.117
20.3012 20.718 0.116
20.3063 20.676 0.116
20.3114 20.809 0.116
20.3165 20.565 0.116
20.3217 20.372 0.115
20.3268 20.534 0.116
20.3319 20.301 0.115
20.3370 20.592 0.116
20.3421 20.573 0.116
20.3472 20.366 0.115
20.3523 20.392 0.115
20.3574 20.324 0.115
20.3625 20.354 0.115
20.3676 20.481 0.115
20.3727 20.378 0.115
20.3778 20.125 0.114
20.3829 20.285 0.115
20.3880 20.220 0.115
20.3931 20.238 0.115
20.3982 20.217 0.115
20.4033 20.199 0.115
20.4084 20.173 0.115
20.4135 20.393 0.115
20.4186 20.248 0.115
20.4237 20.001 0.114
20.4288 20.007 0.114
20.4339 20.150 0.115
20.4390 19.798 0.114
20.4441 19.910 0.114
20.4492 20.122 0.114
20.4543 19.870 0.114
20.4595 19.980 0.114
20.4646 19.794 0.114
20.4697 19.861 0.114
20.4748 20.086 0.114
20.4799 19.918 0.114
20.4850 19.730 0.113
20.4901 19.758 0.113
20.4952 19.932 0.114
20.5003 19.721 0.113
20.5054 19.820 0.114
20.5105 19.833 0.114
20.5156 19.648 0.113
20.5207 19.913 0.114
20.5258 19.821 0.114
20.5309 19.555 0.113
20.5360 19.566 0.113
20.5411 19.615 0.113
20.5462 19.416 0.112
20.5513 19.508 0.113
20.5564 19.806 0.114
20.5615 19.434 0.112
20.5666 19.864 0.114
20.5717 19.507 0.113
20.5768 19.363 0.112
20.5819 19.464 0.113
20.5870 19.497 0.113
20.5921 19.413 0.112
20.5973 19.449 0.113
20.6024 19.602 0.113
20.6075 19.286 0.112
20.6126 19.528 0.113
20.6177 19.505 0.113
20.6228 19.428 0.112
20.6279 19.607 0.113
20.6330 19.433 0.112
20.6381 19.202 0.112
20.6432 19.486 0.113
20.6483 19.462 0.113
20.6534 18.990 0.111
20.6585 19.367 0.112
20.6636 19.370 0.112
20.6687 19.179 0.112
20.6738 19.279 0.112
20.6789 19.228 0.112
20.6840 19.275 0.112
20.6891 19.174 0.112
20.6942 19.307 0.112
20.6993 19.263 0.112
20.7044 19.117 0.112
20.7095 19.243 0.112
20.7146 18.897 0.111
20.7197 19.208 0.112
20.7248 19.272 0.112
20.7299 18.918 0.111
20.7351 19.051 0.111
20.7402 18.917 0.111
20.7453 18.829 0.111
20.7504 19.266 0.112
20.7555 19.159 0.112
20.7606 19.051 0.111
20.7657 19.053 0.111
20.7708 19.159 0.112
20.7759 18.932 0.111
20.7810 19.049 0.111
20.7861 19.142 0.112
20.7912 19.027 0.111
20.7963 19.214 0.112
20.8014 18.924 0.111
20.8065 18.717 0.110
20.8116 19.135 0.112
20.8167 18.954 0.111
20.8218 18.864 0.111
20.8269 18.958 0.111
20.8320 19.259 0.112
20.8371 18.712 0.110
20.8422 18.938 0.111
20.8473 19.255 0.112
20.8524 18.788 0.111
20.8575 18.798 0.111
20.8626 19.044 0.111
20.8677 18.942 0.111
20.8729 18.859 0.111
20.8780 18.939 0.111
20.8831 18.753 0.110
20.8882 18.835 0.111
20.8933 19.013 0.111
20.8984 18.561 0.110
20.9035 18.867 0.111
20.9086 18.943 0.111
20.9137 18.889 0.111
20.9188 18.792 0.111
20.9239 18.729 0.110
20.9290 18.612 0.110
20.9341 18.855 0.111
20.9392 18.787 0.111
20.9443 18.637 0.110
20.9494 18.843 0.111
20.9545 18.835 0.111
20.9596 18.644 0.110
20.9647 18.818 0.111
20.9698 19.021 0.111
20.9749 18.956 0.111
20.9800 19.163 0.112
20.9851 18.986 0.111
20.9902 18.874 0.111
20.9953 18.943 0.111
21.0004 18.969 0.111
21.0055 18.896 0.111
21.0107 18.842 0.111
21.0158 19.193 0.112
21.0209 19.117 0.112
21.0260 18.958 0.111
21.0311 19.092 0.111
21.0362 19.055 0.111
21.0413 19.003 0.111
21.0464 19.165 0.112
21.0515 19.193 0.112
21.0566 19.066 0.111
21.0617 19.309 0.112
21.0668 18.957 0.111
21.0719 19.059 0.111
21.0770 18.994 0.111
21.0821 18.923 0.111
21.0872 19.167 0.112
21.0923 19.131 0.112
21.0974 19.075 0.111
21.1025 19.095 0.111
21.1076 19.222 0.112
21.1127 18.910 0.111
21.1178 19.230 0.112
21.1229 19.202 0.112
21.1280 19.299 0.112
21.1331 19.265 0.112
21.1382 19.421 0.112
21.1433 19.233 0.112
21.1485 19.125 0.112
21.1536 19.327 0.112
21.1587 19.294 0.112
21.1638 19.339 0.112
21.1689 19.476 0.113
21.1740 19.222 0.112
21.1791 19.360 0.112
21.1842 19.308 0.112
21.1893 19.294 0.112
21.1944 19.228 0.112
21.1995 19.321 0.112
21.2046 19.290 0.112
21.2097 19.333 0.112
21.2148 19.413 0.112
21.2199 19.332 0.112
21.2250 19.249 0.112
21.2301 19.470 0.113
21.2352 19.278 0.112
21.2403 19.283 0.112
21.2454 19.295 0.112
21.2505 19.441 0.113
21.2556 19.373 0.112
21.2607 19.415 0.112
21.2658 19.063 0.111
21.2709 19.242 0.112
21.2760 19.264 0.112
21.2811 19.355 0.112
21.2863 19.047 0.111
21.2914 19.257 0.112
21.2965 19.326 0.112
21.3016 19.282 0.112
21.3067 19.331 0.112
21.3118 18.926 0.111
21.3169 19.100 0.112
21.3220 19.129 0.112
21.3271 18.896 0.111
21.3322 18.999 0.111
21.3373 19.059 0.111
21.3424 18.975 0.111
21.3475 18.721 0.110
21.3526 19.100 0.112
21.3577 18.936 0.111
21.3628 18.614 0.110
21.3679 18.868 0.111
21.3730 18.889 0.111
21.3781 18.664 0.110
21.3832 18.854 0.111
21.3883 18.843 0.111
21.3934 18.824 0.111
21.3985 18.939 0.111
21.4036 18.857 0.111
21.4087 18.696 0.110
21.4138 18.746 0.110
21.4189 18.831 0.111
21.4241 18.628 0.110
21.4292 18.840 0.111
21.4343 18.964 0.111
21.4394 18.568 0.110
21.4445 18.715 0.110
21.4496 18.725 0.110
21.4547 18.704 0.110
21.4598 18.763 0.111
21.4649 18.939 0.111
21.4700 18.359 0.109
21.4751 18.667 0.110
21.4802 18.965 0.111
21.4853 18.745 0.110
21.4904 18.644 0.110
21.4955 18.921 0.111
21.5006 18.277 0.109
21.5057 18.837 0.111
21.5108 18.778 0.111
21.5159 18.547 0.110
21.5210 18.901 0.111
21.5261 18.608 0.110
21.5312 18.605 0.110
21.5363 18.792 0.111
21.5414 18.856 0.111
21.5465 18.753 0.110
21.5516 18.896 0.111
21.5567 18.921 0.111
21.5619 18.872 0.111
21.5670 19.150 0.112
21.5721 18.990 0.111
21.5772 19.076 0.111
21.5823 19.498 0.113
21.5874 19.555 0.113
21.5925 19.456 0.113
21.5976 19.527 0.113
21.6027 19.827 0.114
21.6078 19.710 0.113
21.6129 20.173 0.115
21.6180 20.536 0.116
21.6231 20.695 0.116
21.6282 21.003 0.117
21.6333 21.049 0.117
21.6384 21.410 0.118
21.6435 21.822 0.119
21.6486 22.481 0.121
21.6537 22.566 0.121
21.6588 23.470 0.124
21.6639 24.227 0.126
21.6690 24.773 0.127
21.6741 25.821 0.130
21.6792 26.896 0.132
21.6843 27.649 0.134
21.6894 28.930 0.137
21.6945 30.008 0.140
21.6997 30.704 0.141
21.7048 31.848 0.144
21.7099 32.909 0.146
21.7150 33.508 0.148
21.7201 34.300 0.149
21.7252 34.411 0.150
21.7303 33.842 0.148
21.7354 34.076 0.149
21.7405 33.092 0.147
21.7456 31.819 0.144
21.7507 31.320 0.143
21.7558 29.693 0.139
21.7609 28.408 0.136
21.7660 27.574 0.134
21.7711 26.521 0.131
21.7762 25.528 0.129
21.7813 24.861 0.127
21.7864 24.247 0.126
21.7915 23.803 0.124
21.7966 23.652 0.124
21.8017 23.597 0.124
21.8068 23.520 0.124
21.8119 23.861 0.125
21.8170 24.424 0.126
21.8221 24.202 0.126
21.8272 24.724 0.127
21.8323 25.249 0.128
21.8375 25.233 0.128
21.8426 25.962 0.130
21.8477 26.168 0.131
21.8528 26.099 0.130
21.8579 26.365 0.131
21.8630 26.240 0.131
21.8681 25.771 0.130
21.8732 25.532 0.129
21.8783 24.566 0.126
21.8834 24.235 0.126
21.8885 23.689 0.124
21.8936 22.964 0.122
21.8987 21.816 0.119
21.9038 21.479 0.118
21.9089 20.857 0.117
21.9140 20.194 0.115
21.9191 20.004 0.114
21.9242 19.555 0.113
21.9293 19.158 0.112
21.9344 18.977 0.111
21.9395 18.910 0.111
21.9446 18.621 0.110
21.9497 18.462 0.110
21.9548 18.408 0.109
21.9599 17.945 0.108
21.9650 18.257 0.109
21.9701 18.034 0.108
21.9753 18.020 0.108
21.9804 17.898 0.108
21.9855 17.916 0.108
21.9906 17.579 0.107
21.9957 17.809 0.108
22.0008 17.723 0.107
22.0059 17.722 0.107
22.0110 17.749 0.107
22.0161 17.576 0.107
22.0212 17.472 0.107
22.0263 17.662 0.107
22.0314 17.363 0.106
22.0365 17.101 0.106
22.0416 17.438 0.107
22.0467 17.459 0.107
22.0518 17.099 0.106
22.0569 17.520 0.107
22.0620 17.271 0.106
22.0671 17.329 0.106
22.0722 17.370 0.106
22.0773 17.274 0.106
22.0824 17.030 0.105
22.0875 17.273 0.106
22.0926 17.339 0.106
22.0977 17.261 0.106
22.1028 17.445 0.107
22.1079 17.529 0.107
22.1131 17.132 0.106
22.1182 17.121 0.106
22.1233 17.213 0.106
22.1284 16.930 0.105
22.1335 17.314 0.106
22.1386 17.072 0.105
22.1437 17.102 0.106
22.1488 17.061 0.105
22.1539 17.107 0.106
22.1590 17.268 0.106
22.1641 17.186 0.106
22.1692 17.083 0.105
22.1743 16.929 0.105
22.1794 16.894 0.105
22.1845 17.115 0.106
22.1896 16.967 0.105
22.1947 17.090 0.105
22.1998 17.148 0.106
22.2049 16.971 0.105
22.2100 16.930 0.105
22.2151 16.941 0.105
22.2202 17.095 0.105
22.2253 17.003 0.105
22.2304 17.063 0.105
22.2355 17.178 0.106
22.2406 17.108 0.106
22.2457 16.977 0.105
22.2509 16.972 0.105
22.2560 16.856 0.105
22.2611 16.819 0.105
22.2662 16.982 0.105
22.2713 17.038 0.105
22.2764 17.134 0.106
22.2815 16.848 0.105
22.2866 16.759 0.104
22.2917 16.999 0.105
22.2968 16.876 0.105
22.3019 16.994 0.105
22.3070 16.967 0.105
22.3121 16.895 0.105
22.3172 16.910 0.105
22.3223 17.117 0.106
22.3274 16.909 0.105
22.3325 17.036 0.105
22.3376 16.980 0.105
22.3427 16.908 0.105
22.3478 16.745 0.104
22.3529 17.048 0.105
22.3580 16.778 0.105
22.3631 16.801 0.105
22.3682 16.870 0.105
22.3733 16.794 0.105
22.3784 16.734 0.104
22.3835 16.804 0.105
22.3887 16.862 0.105
22.3938 16.799 0.105
22.3989 16.830 0.105
22.4040 16.869 0.105
22.4091 16.729 0.104
22.4142 16.826 0.105
22.4193 16.802 0.105
22.4244 16.571 0.104
22.4295 16.789 0.105
22.4346 16.650 0.104
22.4397 16.633 0.104
22.4448 16.860 0.105
22.4499 16.688 0.104
22.4550 16.574 0.104
22.4601 16.878 0.105
22.4652 16.577 0.104
22.4703 16.639 0.104
22.4754 16.843 0.105
22.4805 16.796 0.105
22.4856 16.604 0.104
22.4907 16.819 0.105
22.4958 16.796 0.105
22.5009 16.736 0.104
22.5060 16.779 0.105
22.5111 16.836 0.105
22.5162 16.456 0.104
22.5213 16.523 0.104
22.5265 16.467 0.104
22.5316 16.518 0.104
22.5367 16.544 0.104
22.5418 16.601 0.104
22.5469 16.258 0.103
22.5520 16.528 0.104
22.5571 16.541 0.104
22.5622 16.604 0.104
22.5673 16.616 0.104
22.5724 16.598 0.104
22.5775 16.652 0.104
22.5826 16.488 0.104
22.5877 16.623 0.104
22.5928 16.436 0.103
22.5979 16.719 0.104
22.6030 16.519 0.104
22.6081 16.215 0.103
22.6132 16.540 0.104
22.6183 16.667 0.104
22.6234 16.469 0.104
22.6285 16.590 0.104
22.6336 16.628 0.104
22.6387 16.320 0.103
22.6438 16.618 0.104
22.6489 16.418 0.103
22.6540 16.425 0.103
22.6591 16.363 0.103
22.6643 16.556 0.104
22.6694 16.400 0.103
22.6745 16.464 0.104
22.6796 16.441 0.103
22.6847 16.305 0.103
22.6898 16.583 0.104
22.6949 16.535 0.104
22.7000 16.184 0.103
22.7051 16.484 0.104
22.7102 16.269 0.103
22.7153 16.208 0.103
22.7204 16.539 0.104
22.7255 16.348 0.103
22.7306 16.119 0.102
22.7357 16.346 0.103
22.7408 16.232 0.103
22.7459 16.287 0.103
22.7510 16.303 0.103
22.7561 16.241 0.103
22.7612 16.055 0.102
22.7663 16.339 0.103
22.7714 16.370 0.103
22.7765 16.262 0.103
22.7816 16.299 0.103
22.7867 16.402 0.103
22.7918 16.042 0.102
22.7969 16.157 0.103
22.8021 16.280 0.103
22.8072 16.089 0.102
22.8123 16.171 0.103
22.8174 16.208 0.103
22.8225 16.249 0.103
22.8276 16.242 0.103
22.8327 16.269 0.103
22.8378 15.919 0.102
22.8429 16.282 0.103
22.8480 16.378 0.103
22.8531 16.029 0.102
22.8582 16.246 0.103
22.8633 16.161 0.103
22.8684 16.193 0.103
22.8735 16.241 0.103
22.8786 16.143 0.103
22.8837 15.995 0.102
22.8888 16.188 0.103
22.8939 16.242 0.103
22.8990 16.174 0.103
22.9041 16.136 0.102
22.9092 16.152 0.103
22.9143 15.973 0.102
22.9194 16.068 0.102
22.9245 16.122 0.102
22.9296 15.826 0.102
22.9347 16.102 0.102
22.9399 16.040 0.102
22.9450 16.055 0.102
22.9501 16.111 0.102
22.9552 16.146 0.103
22.9603 15.950 0.102
22.9654 16.160 0.103
22.9705 15.923 0.102
22.9756 15.976 0.102
22.9807 15.913 0.102
22.9858 16.072 0.102
22.9909 15.903 0.102
22.9960 15.840 0.102
23.0011 15.954 0.102
23.0062 15.861 0.102
23.0113 16.047 0.102
23.0164 16.021 0.102
23.0215 15.777 0.101
23.0266 15.975 0.102
23.0317 15.913 0.102
23.0368 15.955 0.102
23.0419 15.805 0.101
23.0470 15.989 0.102
23.0521 15.590 0.101
23.0572 15.907 0.102
23.0623 16.130 0.102
23.0674 15.694 0.101
23.0725 15.872 0.102
23.0777 15.949 0.102
23.0828 15.665 0.101
23.0879 15.978 0.102
23.0930 15.968 0.102
23.0981 15.674 0.101
23.1032 15.822 0.101
23.1083 15.975 0.102
23.1134 15.915 0.102
23.1185 15.949 0.102
23.1236 15.996 0.102
23.1287 15.798 0.101
23.1338 15.838 0.102
23.1389 15.710 0.101
23.1440 15.637 0.101
23.1491 15.704 0.101
23.1542 15.734 0.101
23.1593 15.531 0.101
23.1644 15.716 0.101
23.1695 15.860 0.102
23.1746 15.699 0.101
23.1797 15.613 0.101
23.1848 15.717 0.101
23.1899 15.622 0.101
23.1950 15.734 0.101
23.2001 15.727 0.101
23.2052 15.717 0.101
23.2103 15.927 0.102
23.2155 15.660 0.101
23.2206 15.587 0.101
23.2257 15.578 0.101
23.2308 15.414 0.100
23.2359 15.618 0.101
23.2410 15.649 0.101
23.2461 15.447 0.100
23.2512 15.599 0.101
23.2563 15.505 0.100
23.2614 15.592 0.101
23.2665 15.534 0.101
23.2716 15.705 0.101
23.2767 15.544 0.101
23.2818 15.445 0.100
23.2869 15.527 0.101
23.2920 15.460 0.100
23.2971 15.361 0.100
23.3022 15.570 0.101
23.3073 15.447 0.100
23.3124 15.538 0.101
23.3175 15.568 0.101
23.3226 15.624 0.101
23.3277 15.313 0.100
23.3328 15.424 0.100
23.3379 15.338 0.100
23.3430 15.403 0.100
23.3481 15.345 0.100
23.3533 15.289 0.100
23.3584 15.301 0.100
23.3635 15.456 0.100
23.3686 15.472 0.100
23.3737 15.462 0.100
23.3788 15.605 0.101
23.3839 15.488 0.100
23.3890 15.411 0.100
23.3941 15.328 0.100
23.3992 15.473 0.100
23.4043 15.436 0.100
23.4094 15.221 0.100
23.4145 15.385 0.100
23.4196 15.246 0.100
23.4247 15.331 0.100
23.4298 15.502 0.100
23.4349 15.149 0.099
23.4400 15.308 0.100
23.4451 15.240 0.100
23.4502 15.136 0.099
23.4553 15.187 0.099
23.4604 15.156 0.099
23.4655 15.199 0.099
23.4706 15.195 0.099
23.4757 15.321 0.100
23.4808 15.234 0.100
23.4859 15.204 0.099
23.4911 15.322 0.100
23.4962 15.127 0.099
23.5013 15.086 0.099
23.5064 15.293 0.100
23.5115 14.955 0.099
23.5166 15.113 0.099
23.5217 15.238 0.100
23.5268 15.277 0.100
23.5319 15.195 0.099
23.5370 15.217 0.100
23.5421 15.128 0.099
23.5472 15.292 0.100
23.5523 15.167 0.099
23.5574 15.243 0.100
23.5625 15.132 0.099
23.5676 15.192 0.099
23.5727 15.301 0.100
23.5778 14.942 0.099
23.5829 15.243 0.100
23.5880 15.137 0.099
23.5931 14.999 0.099
23.5982 15.318 0.100
23.6033 15.337 0.100
23.6084 15.092 0.099
23.6135 15.133 0.099
23.6186 15.133 0.099
23.6237 14.953 0.099
23.6289 15.234 0.100
23.6340 15.192 0.099
23.6391 15.079 0.099
23.6442 15.180 0.099
23.6493 15.021 0.099
23.6544 14.988 0.099
23.6595 15.216 0.100
23.6646 15.111 0.099
23.6697 14.976 0.099
23.6748 15.290 0.100
23.6799 15.294 0.100
23.6850 14.958 0.099
23.6901 15.225 0.100
23.6952 14.999 0.099
23.7003 14.921 0.099
23.7054 15.313 0.100
23.7105 15.130 0.099
23.7156 15.084 0.099
23.7207 15.025 0.099
23.7258 15.041 0.099
23.7309 15.063 0.099
23.7360 15.048 0.099
23.7411 15.101 0.099
23.7462 14.963 0.099
23.7513 15.264 0.100
23.7564 15.095 0.099
23.7615 15.041 0.099
23.7667 15.096 0.099
23.7718 15.115 0.099
23.7769 14.898 0.098
23.7820 15.011 0.099
23.7871 15.143 0.099
23.7922 14.921 0.099
23.7973 14.907 0.099
23.8024 15.016 0.099
23.8075 14.939 0.099
23.8126 14.813 0.098
23.8177 15.116 0.099
23.8228 14.918 0.099
23.8279 15.056 0.099
23.8330 14.934 0.099
23.8381 14.778 0.098
23.8432 14.844 0.098
23.8483 14.951 0.099
23.8534 14.751 0.098
23.8585 14.907 0.099
23.8636 14.950 0.099
23.8687 14.756 0.098
23.8738 14.997 0.099
23.8789 14.951 0.099
23.8840 14.834 0.098
23.8891 14.993 0.099
23.8942 15.046 0.099
23.8993 14.923 0.099
23.9045 14.770 0.098
23.9096 14.966 0.099
23.9147 14.634 0.098
23.9198 14.938 0.099
23.9249 14.966 0.099
23.9300 14.880 0.098
23.9351 14.868 0.098
23.9402 15.014 0.099
23.9453 14.663 0.098
23.9504 14.891 0.098
23.9555 14.790 0.098
23.9606 14.760 0.098
23.9657 14.902 0.098
23.9708 14.846 0.098
23.9759 14.594 0.097
23.9810 14.891 0.098
23.9861 14.873 0.098
23.9912 14.822 0.098
23.9963 14.795 0.098
24.0014 14.967 0.099
24.0065 14.671 0.098
24.0116 14.945 0.099
24.0167 14.758 0.098
24.0218 14.602 0.098
24.0269 14.996 0.099
24.0320 14.840 0.098
24.0371 14.648 0.098
24.0423 14.863 0.098
24.0474 14.802 0.098
24.0525 14.648 0.098
24.0576 14.726 0.098
24.0627 14.993 0.099
24.0678 14.768 0.098
24.0729 14.919 0.099
24.0780 14.714 0.098
24.0831 14.820 0.098
24.0882 14.781 0.098
24.0933 14.816 0.098
24.0984 14.680 0.098
24.1035 14.791 0.098
24.1086 14.891 0.098
24.1137 14.533 0.097
24.1188 14.659 0.098
24.1239 14.833 0.098
24.1290 14.868 0.098
24.1341 14.943 0.099
24.1392 14.939 0.099
24.1443 14.829 0.098
24.1494 14.929 0.099
24.1545 14.820 0.098
24.1596 14.625 0.098
24.1647 14.869 0.098
24.1698 14.887 0.098
24.1749 14.592 0.097
24.1801 14.807 0.098
24.1852 14.854 0.098
24.1903 14.613 0.098
24.1954 14.681 0.098
24.2005 14.889 0.098
24.2056 14.680 0.098
24.2107 14.847 0.098
24.2158 14.645 0.098
24.2209 14.681 0.098
24.2260 14.790 0.098
24.2311 14.799 0.098
24.2362 14.716 0.098
24.2413 14.765 0.098
24.2464 14.717 0.098
24.2515 14.568 0.097
24.2566 14.714 0.098
24.2617 14.571 0.097
24.2668 14.542 0.097
24.2719 14.623 0.098
24.2770 14.885 0.098
24.2821 14.632 0.098
24.2872 14.785 0.098
24.2923 14.537 0.097
24.2974 14.639 0.098
24.3025 14.823 0.098
24.3076 14.833 0.098
24.3127 14.561 0.097
24.3179 14.724 0.098
24.3230 14.764 0.098
24.3281 14.477 0.097
24.3332 14.566 0.097
24.3383 14.684 0.098
24.3434 14.579 0.097
24.3485 14.769 0.098
24.3536 14.701 0.098
24.3587 14.609 0.098
24.3638 14.899 0.098
24.3689 14.615 0.098
24.3740 14.493 0.097
24.3791 14.575 0.097
24.3842 14.785 0.098
24.3893 14.574 0.097
24.3944 14.704 0.098
24.3995 14.555 0.097
24.4046 14.609 0.098
24.4097 14.541 0.097
24.4148 14.658 0.098
24.4199 14.645 0.098
24.4250 14.620 0.098
24.4301 14.755 0.098
24.4352 14.434 0.097
24.4403 14.506 0.097
24.4454 14.612 0.098
24.4505 14.592 0.097
24.4557 14.504 0.097
24.4608 14.700 0.098
24.4659 14.574 0.097
24.4710 14.430 0.097
24.4761 14.650 0.098
24.4812 14.219 0.096
24.4863 14.579 0.097
24.4914 14.503 0.097
24.4965 14.747 0.098
24.5016 14.601 0.097
24.5067 14.695 0.098
24.5118 14.557 0.097
24.5169 14.583 0.097
24.5220 14.538 0.097
24.5271 14.695 0.098
24.5322 14.496 0.097
24.5373 14.538 0.097
24.5424 14.409 0.097
24.5475 14.620 0.098
24.5526 14.529 0.097
24.5577 14.542 0.097
24.5628 14.393 0.097
24.5679 14.602 0.097
24.5730 14.708 0.098
24.5781 14.485 0.097
24.5832 14.739 0.098
24.5883 14.642 0.098
24.5935 14.680 0.098
24.5986 14.492 0.097
24.6037 14.660 0.098
24.6088 14.418 0.097
24.6139 14.699 0.098
24.6190 14.441 0.097
24.6241 14.368 0.097
24.6292 14.518 0.097
24.6343 14.535 0.097
24.6394 14.370 0.097
24.6445 14.637 0.098
24.6496 14.445 0.097
24.6547 14.364 0.097
24.6598 14.501 0.097
24.6649 14.666 0.098
24.6700 14.570 0.097
24.6751 14.630 0.098
24.6802 14.435 0.097
24.6853 14.503 0.097
24.6904 14.545 0.097
24.6955 14.591 0.097
24.7006 14.484 0.097
24.7057 14.446 0.097
24.7108 14.590 0.097
24.7159 14.366 0.097
24.7210 14.715 0.098
24.7261 14.549 0.097
24.7313 14.464 0.097
24.7364 14.495 0.097
24.7415 14.585 0.097
24.7466 14.337 0.097
24.7517 14.417 0.097
24.7568 14.531 0.097
24.7619 14.312 0.097
24.7670 14.332 0.097
24.7721 14.245 0.096
24.7772 14.336 0.097
24.7823 14.534 0.097
24.7874 14.366 0.097
24.7925 14.381 0.097
24.7976 14.580 0.097
24.8027 14.344 0.097
24.8078 14.451 0.097
24.8129 14.495 0.097
24.8180 14.518 0.097
24.8231 14.372 0.097
24.8282 14.513 0.097
24.8333 14.321 0.097
24.8384 14.376 0.097
24.8435 14.585 0.097
24.8486 14.298 0.096
24.8537 14.329 0.097
24.8588 14.464 0.097
24.8639 14.377 0.097
24.8691 14.230 0.096
24.8742 14.337 0.097
24.8793 14.420 0.097
24.8844 14.051 0.096
24.8895 14.303 0.096
24.8946 14.417 0.097
24.8997 14.275 0.096
24.9048 14.408 0.097
24.9099 14.406 0.097
24.9150 14.242 0.096
24.9201 14.353 0.097
24.9252 14.476 0.097
24.9303 14.137 0.096
24.9354 14.283 0.096
24.9405 14.402 0.097
24.9456 14.305 0.097
24.9507 14.182 0.096
24.9558 14.160 0.096
24.9609 14.237 0.096
24.9660 14.384 0.097
24.9711 14.507 0.097
24.9762 14.100 0.096
24.9813 14.417 0.097
24.9864 14.268 0.096
24.9915 14.214 0.096
24.9966 14.327 0.097
25.0017 14.458 0.097
25.0069 14.302 0.096
25.0120 14.363 0.097
25.0171 14.430 0.097
25.0222 14.064 0.096
25.0273 14.286 0.096
25.0324 14.393 0.097
25.0375 14.296 0.096
25.0426 14.235 0.096
25.0477 14.368 0.097
25.0528 14.224 0.096
25.0579 14.437 0.097
25.0630 14.287 0.096
25.0681 14.249 0.096
25.0732 14.492 0.097
25.0783 14.459 0.097
25.0834 14.286 0.096
25.0885 14.419 0.097
25.0936 14.561 0.097
25.0987 14.191 0.096
25.1038 14.434 0.097
25.1089 14.743 0.098
25.1140 14.319 0.097
25.1191 14.377 0.097
25.1242 14.518 0.097
25.1293 14.251 0.096
25.1344 14.394 0.097
25.1395 14.437 0.097
25.1447 14.352 0.097
25.1498 14.500 0.097
25.1549 14.816 0.098
25.1600 14.581 0.097
25.1651 14.697 0.098
25.1702 14.613 0.098
25.1753 14.495 0.097
25.1804 14.578 0.097
25.1855 14.765 0.098
25.1906 14.563 0.097
25.1957 14.790 0.098
25.2008 14.934 0.099
25.2059 14.657 0.098
25.2110 14.951 0.099
25.2161 14.996 0.099
25.2212 14.749 0.098
25.2263 14.903 0.099
25.2314 15.126 0.099
25.2365 14.669 0.098
25.2416 14.976 0.099
25.2467 15.289 0.100
25.2518 15.161 0.099
25.2569 15.296 0.100
25.2620 15.214 0.100
25.2671 15.038 0.099
25.2722 15.276 0.100
25.2773 15.401 0.100
25.2825 15.096 0.099
25.2876 15.262 0.100
25.2927 15.288 0.100
25.2978 15.275 0.100
25.3029 15.182 0.099
25.3080 15.435 0.100
25.3131 15.238 0.100
25.3182 15.372 0.100
25.3233 15.418 0.100
25.3284 15.380 0.100
25.3335 15.454 0.100
25.3386 15.393 0.100
25.3437 15.172 0.099
25.3488 15.338 0.100
25.3539 15.583 0.101
25.3590 15.405 0.100
25.3641 15.593 0.101
25.3692 15.820 0.101
25.3743 15.439 0.100
25.3794 15.622 0.101
25.3845 15.569 0.101
25.3896 15.424 0.100
25.3947 15.670 0.101
25.3998 15.696 0.101
25.4049 15.670 0.101
25.4100 15.717 0.101
25.4152 15.667 0.101
25.4203 15.527 0.101
25.4254 15.755 0.101
25.4305 15.770 0.101
25.4356 15.406 0.100
25.4407 15.771 0.101
25.4458 15.777 0.101
25.4509 15.728 0.101
25.4560 15.529 0.101
25.4611 15.816 0.101
25.4662 15.690 0.101
25.4713 15.627 0.101
25.4764 15.654 0.101
25.4815 15.697 0.101
25.4866 15.839 0.102
25.4917 15.807 0.101
25.4968 15.470 0.100
25.5019 15.665 0.101
25.5070 15.804 0.101
25.5121 15.488 0.100
25.5172 15.734 0.101
25.5223 15.575 0.101
25.5274 15.624 0.101
25.5325 15.559 0.101
25.5376 15.811 0.101
25.5427 15.676 0.101
25.5478 15.640 0.101
25.5530 15.659 0.101
25.5581 15.517 0.101
25.5632 15.488 0.100
25.5683 15.572 0.101
25.5734 15.490 0.100
25.5785 15.426 0.100
25.5836 15.479 0.100
25.5887 15.290 0.100
25.5938 15.409 0.100
25.5989 15.464 0.100
25.6040 15.333 0.100
25.6091 15.210 0.100
25.6142 15.474 0.100
25.6193 15.201 0.099
25.6244 15.344 0.100
25.6295 15.488 0.100
25.6346 15.343 0.100
25.6397 15.313 0.100
25.6448 15.479 0.100
25.6499 15.571 0.101
25.6550 15.413 0.100
25.6601 15.471 0.100
25.6652 15.496 0.100
25.6703 15.572 0.101
25.6754 15.548 0.101
25.6805 15.690 0.101
25.6856 15.609 0.101
25.6908 15.641 0.101
25.6959 15.695 0.101
25.7010 15.653 0.101
25.7061 15.749 0.101
25.7112 15.560 0.101
25.7163 15.635 0.101
25.7214 15.818 0.101
25.7265 15.962 0.102
25.7316 15.730 0.101
25.7367 15.860 0.102
25.7418 16.114 0.102
25.7469 15.965 0.102
25.7520 16.286 0.103
25.7571 16.134 0.102
25.7622 16.096 0.102
25.7673 16.561 0.104
25.7724 16.660 0.104
25.7775 16.730 0.104
25.7826 17.057 0.105
25.7877 17.095 0.105
25.7928 17.398 0.106
25.7979 17.697 0.107
25.8030 17.941 0.108
25.8081 17.900 0.108
25.8132 18.614 0.110
25.8183 18.852 0.111
25.8234 19.331 0.112
25.8286 19.566 0.113
25.8337 19.984 0.114
25.8388 20.198 0.115
25.8439 20.574 0.116
25.8490 20.992 0.117
25.8541 21.449 0.118
25.8592 21.560 0.118
25.8643 21.896 0.119
25.8694 22.111 0.120
25.8745 22.744 0.122
25.8796 23.347 0.123
25.8847 23.523 0.124
25.8898 24.411 0.126
25.8949 24.839 0.127
25.9000 25.455 0.129
25.9051 26.585 0.132
25.9102 27.182 0.133
25.9153 27.782 0.134
25.9204 28.592 0.136
25.9255 29.436 0.138
25.9306 29.703 0.139
25.9357 30.403 0.141
25.9408 30.454 0.141
25.9459 30.110 0.140
25.9510 30.674 0.141
25.9561 30.264 0.140
25.9612 29.600 0.139
25.9664 29.390 0.138
25.9715 28.678 0.137
25.9766 27.807 0.135
25.9817 27.258 0.133
25.9868 26.359 0.131
25.9919 25.471 0.129
25.9970 24.929 0.127
26.0021 24.089 0.125
26.0072 23.227 0.123
26.0123 23.019 0.122
26.0174 22.673 0.121
26.0225 22.199 0.120
26.0276 21.886 0.119
26.0327 21.762 0.119
26.0378 21.447 0.118
26.0429 21.693 0.119
26.0480 21.525 0.118
26.0531 21.395 0.118
26.0582 21.887 0.119
26.0633 22.074 0.120
26.0684 21.891 0.119
26.0735 22.350 0.121
26.0786 22.610 0.121
26.0837 22.850 0.122
26.0888 23.056 0.123
26.0939 23.209 0.123
26.0990 23.248 0.123
26.1042 22.904 0.122
26.1093 22.965 0.122
26.1144 22.421 0.121
26.1195 22.599 0.121
26.1246 22.216 0.120
26.1297 21.603 0.119
26.1348 21.388 0.118
26.1399 20.874 0.117
26.1450 19.932 0.114
26.1501 19.716 0.113
26.1552 19.365 0.112
26.1603 18.742 0.110
26.1654 18.402 0.109
26.1705 18.113 0.109
26.1756 17.541 0.107
26.1807 17.521 0.107
26.1858 17.191 0.106
26.1909 17.020 0.105
26.1960 16.713 0.104
26.2011 16.721 0.104
26.2062 16.380 0.103
26.2113 16.310 0.103
26.2164 16.438 0.103
26.2215 16.174 0.103
26.2266 16.232 0.103
26.2317 16.025 0.102
26.2368 15.896 0.102
26.2420 16.076 0.102
26.2471 15.980 0.102
26.2522 15.640 0.101
26.2573 15.813 0.101
26.2624 15.883 0.102
26.2675 15.736 0.101
26.2726 15.725 0.101
26.2777 15.764 0.101
26.2828 15.842 0.102
26.2879 15.901 0.102
26.2930 16.069 0.102
26.2981 15.718 0.101
26.3032 16.020 0.102
26.3083 16.029 0.102
26.3134 15.660 0.101
26.3185 15.924 0.102
26.3236 15.953 0.102
26.3287 15.893 0.102
26.3338 16.128 0.102
26.3389 16.038 0.102
26.3440 15.980 0.102
26.3491 15.929 0.102
26.3542 16.198 0.103
26.3593 16.072 0.102
26.3644 16.010 0.102
26.3695 16.163 0.103
26.3746 16.144 0.103
26.3798 16.305 0.103
26.3849 16.585 0.104
26.3900 16.250 0.103
26.3951 16.652 0.104
26.4002 16.738 0.104
26.4053 16.870 0.105
26.4104 16.809 0.105
26.4155 17.124 0.106
26.4206 17.027 0.105
26.4257 17.109 0.106
26.4308 17.288 0.106
26.4359 17.018 0.105
26.4410 17.359 0.106
26.4461 17.331 0.106
26.4512 17.308 0.106
26.4563 17.494 0.107
26.4614 17.635 0.107
26.4665 17.686 0.107
26.4716 17.637 0.107
26.4767 17.976 0.108
26.4818 18.090 0.109
26.4869 17.824 0.108
26.4920 18.441 0.110
26.4971 18.119 0.109
26.5022 18.281 0.109
26.5073 18.784 0.111
26.5124 18.598 0.110
26.5176 18.600 0.110
26.5227 18.917 0.111
26.5278 18.986 0.111
26.5329 18.975 0.111
26.5380 19.240 0.112
26.5431 19.238 0.112
26.5482 19.280 0.112
26.5533 19.567 0.113
26.5584 19.354 0.112
26.5635 19.793 0.114
26.5686 19.749 0.113
26.5737 19.813 0.114
26.5788 20.126 0.114
26.5839 20.262 0.115
26.5890 20.471 0.115
26.5941 20.304 0.115
26.5992 20.594 0.116
26.6043 20.721 0.116
26.6094 20.500 0.116
26.6145 20.934 0.117
26.6196 20.916 0.117
26.6247 21.124 0.117
26.6298 21.574 0.119
26.6349 21.303 0.118
26.6400 21.499 0.118
26.6451 21.916 0.119
26.6502 21.911 0.119
26.6554 21.844 0.119
26.6605 22.409 0.121
26.6656 22.354 0.121
26.6707 22.340 0.121
26.6758 22.900 0.122
26.6809 22.942 0.122
26.6860 22.680 0.122
26.6911 23.089 0.123
26.6962 23.350 0.123
26.7013 23.340 0.123
26.7064 23.620 0.124
26.7115 24.038 0.125
26.7166 23.586 0.124
26.7217 24.145 0.125
26.7268 24.188 0.125
26.7319 24.120 0.125
26.7370 24.365 0.126
26.7421 24.582 0.127
26.7472 24.352 0.126
26.7523 25.045 0.128
26.7574 25.194 0.128
26.7625 25.019 0.128
26.7676 25.611 0.129
26.7727 25.401 0.129
26.7778 25.354 0.128
26.7829 25.917 0.130
26.7880 26.191 0.131
26.7932 25.710 0.129
26.7983 25.874 0.130
26.8034 26.298 0.131
26.8085 26.059 0.130
26.8136 26.755 0.132
26.8187 27.148 0.133
26.8238 26.839 0.132
26.8289 27.273 0.133
26.8340 27.676 0.134
26.8391 27.413 0.134
26.8442 28.143 0.135
26.8493 28.288 0.136
26.8544 27.855 0.135
26.8595 27.928 0.135
26.8646 28.636 0.137
26.8697 28.065 0.135
26.8748 28.813 0.137
26.8799 28.788 0.137
26.8850 28.360 0.136
26.8901 28.818 0.137
26.8952 29.147 0.138
26.9003 28.599 0.136
26.9054 29.147 0.138
26.9105 29.547 0.139
26.9156 28.843 0.137
26.9207 29.589 0.139
26.9258 30.062 0.140
26.9310 29.481 0.139
26.9361 30.122 0.140
26.9412 30.294 0.140
26.9463 29.734 0.139
26.9514 30.169 0.140
26.9565 31.021 0.142
26.9616 29.962 0.140
26.9667 30.682 0.141
26.9718 30.879 0.142
26.9769 30.374 0.141
26.9820 30.670 0.141
26.9871 31.505 0.143
26.9922 30.710 0.141
26.9973 31.099 0.142
27.0024 31.622 0.143
27.0075 30.669 0.141
27.0126 31.354 0.143
27.0177 31.737 0.144
27.0228 30.821 0.142
27.0279 31.313 0.143
27.0330 31.786 0.144
27.0381 31.426 0.143
27.0432 31.696 0.144
27.0483 31.775 0.144
27.0534 31.029 0.142
27.0585 31.505 0.143
27.0636 32.176 0.145
27.0688 31.463 0.143
27.0739 31.687 0.144
27.0790 32.450 0.145
27.0841 31.510 0.143
27.0892 31.792 0.144
27.0943 32.474 0.145
27.0994 31.247 0.143
27.1045 31.594 0.143
27.1096 32.628 0.146
27.1147 31.300 0.143
27.1198 31.747 0.144
27.1249 32.407 0.145
27.1300 31.665 0.144
27.1351 31.570 0.143
27.1402 32.418 0.145
27.1453 31.696 0.144
27.1504 32.161 0.145
27.1555 32.639 0.146
27.1606 31.762 0.144
27.1657 31.788 0.144
27.1708 32.535 0.146
27.1759 31.566 0.143
27.1810 31.782 0.144
27.1861 32.390 0.145
27.1912 31.117 0.142
27.1963 31.609 0.143
27.2014 32.106 0.145
27.2066 31.100 0.142
27.2117 31.031 0.142
27.2168 31.883 0.144
27.2219 31.226 0.143
27.2270 31.255 0.143
27.2321 31.777 0.144
27.2372 30.820 0.142
27.2423 30.738 0.141
27.2474 31.416 0.143
27.2525 30.965 0.142
27.2576 30.442 0.141
27.2627 31.197 0.143
27.2678 30.294 0.140
27.2729 30.199 0.140
27.2780 30.676 0.141
27.2831 29.534 0.139
27.2882 29.799 0.139
27.2933 29.801 0.139
27.2984 29.666 0.139
27.3035 29.289 0.138
27.3086 29.770 0.139
27.3137 28.903 0.137
27.3188 29.256 0.138
27.3239 29.406 0.138
27.3290 28.783 0.137
27.3341 28.638 0.137
27.3392 29.115 0.138
27.3444 28.650 0.137
27.3495 28.367 0.136
27.3546 28.805 0.137
27.3597 28.114 0.135
27.3648 27.949 0.135
27.3699 28.368 0.136
27.3750 27.786 0.134
27.3801 27.564 0.134
27.3852 28.061 0.135
27.3903 27.589 0.134
27.3954 27.290 0.133
27.4005 27.551 0.134
27.4056 26.951 0.132
27.4107 26.727 0.132
27.4158 27.053 0.133
27.4209 26.390 0.131
27.4260 26.230 0.131
27.4311 26.434 0.131
27.4362 26.186 0.131
27.4413 25.982 0.130
27.4464 26.184 0.131
27.4515 25.568 0.129
27.4566 25.420 0.129
27.4617 25.990 0.130
27.4668 24.982 0.128
27.4719 24.861 0.127
27.4770 25.177 0.128
27.4822 24.561 0.126
27.4873 24.381 0.126
27.4924 24.952 0.127
27.4975 24.045 0.125
27.5026 23.901 0.125
27.5077 24.279 0.126
27.5128 23.857 0.125
27.5179 23.513 0.124
27.5230 23.994 0.125
27.5281 23.643 0.124
27.5332 23.076 0.123
27.5383 23.583 0.124
27.5434 23.094 0.123
27.5485 23.087 0.123
27.5536 23.180 0.123
27.5587 22.692 0.122
27.5638 22.651 0.121
27.5689 22.923 0.122
27.5740 22.308 0.121
27.5791 22.227 0.120
27.5842 22.212 0.120
27.5893 21.918 0.119
27.5944 21.848 0.119
27.5995 22.277 0.120
27.6046 21.690 0.119
27.6097 21.497 0.118
27.6148 21.614 0.119
27.6200 21.494 0.118
27.6251 21.188 0.117
27.6302 21.354 0.118
27.6353 21.230 0.118
27.6404 20.777 0.116
27.6455 21.166 0.117
27.6506 20.725 0.116
27.6557 20.706 0.116
27.6608 21.029 0.117
27.6659 20.639 0.116
27.6710 20.404 0.115
27.6761 20.491 0.116
27.6812 20.467 0.115
27.6863 20.331 0.115
27.6914 20.183 0.115
27.6965 20.024 0.114
27.7016 20.063 0.114
27.7067 20.230 0.115
27.7118 19.906 0.114
27.7169 20.061 0.114
27.7220 19.945 0.114
27.7271 19.886 0.114
27.7322 19.727 0.113
27.7373 19.995 0.114
27.7424 19.562 0.113
27.7475 19.835 0.114
27.7526 19.730 0.113
27.7578 19.429 0.112
27.7629 19.425 0.112
27.7680 19.693 0.113
27.7731 19.592 0.113
27.7782 19.424 0.112
27.7833 19.660 0.113
27.7884 19.426 0.112
27.7935 19.548 0.113
27.7986 19.774 0.113
27.8037 19.642 0.113
27.8088 19.547 0.113
27.8139 19.588 0.113
27.8190 19.619 0.113
27.8241 19.406 0.112
27.8292 19.545 0.113
27.8343 19.199 0.112
27.8394 19.385 0.112
27.8445 19.331 0.112
27.8496 19.135 0.112
27.8547 19.012 0.111
27.8598 19.195 0.112
27.8649 19.068 0.111
27.8700 18.896 0.111
27.8751 18.876 0.111
27.8802 18.670 0.110
27.8853 18.799 0.111
27.8904 19.037 0.111
27.8956 18.861 0.111
27.9007 18.818 0.111
27.9058 18.855 0.111
27.9109 18.844 0.111
27.9160 18.714 0.110
27.9211 18.841 0.111
27.9262 18.688 0.110
27.9313 18.518 0.110
27.9364 18.727 0.110
27.9415 18.628 0.110
27.9466 18.630 0.110
27.9517 18.830 0.111
27.9568 18.973 0.111
27.9619 18.681 0.110
27.9670 18.945 0.111
27.9721 18.599 0.110
27.9772 18.516 0.110
27.9823 18.840 0.111
27.9874 18.786 0.111
27.9925 18.426 0.110
27.9976 18.758 0.111
28.0027 18.699 0.110
28.0078 18.558 0.110
28.0129 18.949 0.111
28.0180 18.720 0.110
28.0231 18.501 0.110
28.0282 18.767 0.111
28.0334 18.568 0.110
28.0385 18.598 0.110
28.0436 18.488 0.110
28.0487 18.790 0.111
28.0538 18.417 0.110
28.0589 18.626 0.110
28.0640 18.680 0.110
28.0691 18.484 0.110
28.0742 18.561 0.110
28.0793 18.742 0.110
28.0844 18.499 0.110
28.0895 18.440 0.110
28.0946 18.518 0.110
28.0997 18.299 0.109
28.1048 18.666 0.110
28.1099 18.781 0.111
28.1150 18.508 0.110
28.1201 18.785 0.111
28.1252 18.673 0.110
28.1303 18.574 0.110
28.1354 19.137 0.112
28.1405 19.359 0.112
28.1456 19.117 0.112
28.1507 19.364 0.112
28.1558 19.688 0.113
28.1609 19.645 0.113
28.1660 20.263 0.115
28.1712 20.517 0.116
28.1763 20.501 0.116
28.1814 21.087 0.117
28.1865 21.846 0.119
28.1916 21.859 0.119
28.1967 22.758 0.122
28.2018 23.458 0.124
28.2069 23.629 0.124
28.2120 24.850 0.127
28.2171 25.802 0.130
28.2222 26.602 0.132
28.2273 27.995 0.135
28.2324 28.949 0.137
28.2375 29.895 0.140
28.2426 31.695 0.144
28.2477 33.035 0.147
28.2528 33.992 0.149
28.2579 35.598 0.152
28.2630 36.656 0.154
28.2681 37.480 0.156
28.2732 38.652 0.159
28.2783 39.143 0.160
28.2834 38.816 0.159
28.2885 39.367 0.160
28.2936 39.023 0.159
28.2987 37.770 0.157
28.3038 37.313 0.156
28.3090 36.153 0.153
28.3141 34.771 0.150
28.3192 33.909 0.149
28.3243 32.807 0.146
28.3294 31.184 0.142
28.3345 30.456 0.141
28.3396 29.667 0.139
28.3447 28.431 0.136
28.3498 28.193 0.135
28.3549 27.675 0.134
28.3600 27.319 0.133
28.3651 27.401 0.134
28.3702 27.876 0.135
28.3753 27.585 0.134
28.3804 28.443 0.136
28.3855 29.281 0.138
28.3906 29.479 0.139
28.3957 30.874 0.142
28.4008 32.615 0.146
28.4059 33.419 0.148
28.4110 35.218 0.151
28.4161 37.093 0.155
28.4212 38.531 0.158
28.4263 40.871 0.163
28.4314 42.605 0.167
28.4365 43.934 0.169
28.4416 46.295 0.174
28.4468 48.105 0.177
28.4519 48.751 0.178
28.4570 49.849 0.180
28.4621 50.546 0.181
28.4672 50.021 0.180
28.4723 49.729 0.180
28.4774 48.732 0.178
28.4825 46.758 0.174
28.4876 45.447 0.172
28.4927 43.521 0.168
28.4978 40.854 0.163
28.5029 38.583 0.158
28.5080 36.266 0.154
28.5131 33.689 0.148
28.5182 32.072 0.144
28.5233 30.258 0.140
28.5284 27.982 0.135
28.5335 27.161 0.133
28.5386 26.046 0.130
28.5437 24.503 0.126
28.5488 24.260 0.126
28.5539 23.452 0.124
28.5590 23.003 0.122
28.5641 22.857 0.122
28.5692 22.477 0.121
28.5743 22.596 0.121
28.5794 22.732 0.122
28.5846 22.848 0.122
28.5897 23.064 0.123
28.5948 23.476 0.124
28.5999 24.368 0.126
28.6050 24.521 0.126
28.6101 25.146 0.128
28.6152 26.062 0.130
28.6203 26.343 0.131
28.6254 26.902 0.132
28.6305 27.047 0.133
28.6356 27.188 0.133
28.6407 27.742 0.134
28.6458 27.333 0.133
28.6509 26.549 0.131
28.6560 26.661 0.132
28.6611 26.040 0.130
28.6662 25.161 0.128
28.6713 24.314 0.126
28.6764 23.960 0.125
28.6815 22.515 0.121
28.6866 21.611 0.119
28.6917 20.964 0.117
28.6968 19.724 0.113
28.7019 19.557 0.113
28.7070 18.637 0.110
28.7121 17.898 0.108
28.7172 17.702 0.107
28.7224 16.910 0.105
28.7275 16.495 0.104
28.7326 16.579 0.104
28.7377 16.150 0.103
28.7428 15.767 0.101
28.7479 15.854 0.102
28.7530 15.667 0.101
28.7581 15.369 0.100
28.7632 15.158 0.099
28.7683 15.236 0.100
28.7734 15.159 0.099
28.7785 15.195 0.099
28.7836 15.012 0.099
28.7887 14.511 0.097
28.7938 14.979 0.099
28.7989 14.964 0.099
28.8040 14.738 0.098
28.8091 14.892 0.098
28.8142 14.738 0.098
28.8193 14.605 0.098
28.8244 14.447 0.097
28.8295 14.703 0.098
28.8346 14.451 0.097
28.8397 14.568 0.097
28.8448 14.516 0.097
28.8499 14.535 0.097
28.8550 14.344 0.097
28.8602 14.531 0.097
28.8653 14.428 0.097
28.8704 14.339 0.097
28.8755 14.446 0.097
28.8806 14.382 0.097
28.8857 14.400 0.097
28.8908 14.407 0.097
28.8959 14.117 0.096
28.9010 14.347 0.097
28.9061 14.382 0.097
28.9112 14.500 0.097
28.9163 14.387 0.097
28.9214 14.457 0.097
28.9265 14.270 0.096
28.9316 14.368 0.097
28.9367 14.437 0.097
28.9418 14.348 0.097
28.9469 14.204 0.096
28.9520 14.528 0.097
28.9571 14.462 0.097
28.9622 14.398 0.097
28.9673 14.389 0.097
28.9724 14.424 0.097
28.9775 14.332 0.097
28.9826 14.378 0.097
28.9877 14.381 0.097
28.9928 14.266 0.096
28.9980 14.342 0.097
29.0031 14.396 0.097
29.0082 14.430 0.097
29.0133 14.532 0.097
29.0184 14.244 0.096
29.0235 14.568 0.097
29.0286 14.599 0.097
29.0337 14.395 0.097
29.0388 14.578 0.097
29.0439 14.589 0.097
29.0490 14.783 0.098
29.0541 14.600 0.097
29.0592 14.695 0.098
29.0643 14.874 0.098
29.0694 14.526 0.097
29.0745 14.832 0.098
29.0796 14.736 0.098
29.0847 14.941 0.099
29.0898 14.802 0.098
29.0949 14.833 0.098
29.1000 14.785 0.098
29.1051 15.077 0.099
29.1102 15.104 0.099
29.1153 14.973 0.099
29.1204 15.085 0.099
29.1255 14.945 0.099
29.1306 15.007 0.099
29.1358 14.965 0.099
29.1409 15.156 0.099
29.1460 15.117 0.099
29.1511 15.094 0.099
29.1562 14.936 0.099
29.1613 15.047 0.099
29.1664 15.401 0.100
29.1715 15.016 0.099
29.1766 15.048 0.099
29.1817 15.267 0.100
29.1868 15.085 0.099
29.1919 15.036 0.099
29.1970 15.223 0.100
29.2021 15.195 0.099
29.2072 15.001 0.099
29.2123 15.161 0.099
29.2174 15.215 0.100
29.2225 15.386 0.100
29.2276 15.257 0.100
29.2327 15.267 0.100
29.2378 15.314 0.100
29.2429 15.268 0.100
29.2480 15.531 0.101
29.2531 15.406 0.100
29.2582 15.335 0.100
29.2633 15.438 0.100
29.2684 15.327 0.100
29.2736 15.579 0.101
29.2787 15.263 0.100
29.2838 15.481 0.100
29.2889 15.380 0.100
29.2940 15.637 0.101
29.2991 15.448 0.100
29.3042 15.415 0.100
29.3093 15.467 0.100
29.3144 15.434 0.100
29.3195 15.296 0.100
29.3246 15.587 0.101
29.3297 15.415 0.100
29.3348 15.451 0.100
29.3399 15.445 0.100
29.3450 15.392 0.100
29.3501 15.506 0.100
29.3552 15.530 0.101
29.3603 15.279 0.100
29.3654 15.346 0.100
29.3705 15.387 0.100
29.3756 15.318 0.100
29.3807 15.514 0.100
29.3858 15.393 0.100
29.3909 15.053 0.099
29.3960 15.311 0.100
29.4011 15.279 0.100
29.4062 15.137 0.099
29.4114 15.262 0.100
29.4165 15.199 0.099
29.4216 14.966 0.099
29.4267 15.232 0.100
29.4318 15.260 0.100
29.4369 14.995 0.099
29.4420 15.279 0.100
29.4471 15.193 0.099
29.4522 14.911 0.099
29.4573 15.117 0.099
29.4624 15.299 0.100
29.4675 15.005 0.099
29.4726 15.181 0.099
29.4777 15.070 0.099
29.4828 15.035 0.099
29.4879 15.272 0.100
29.4930 15.287 0.100
29.4981 15.061 0.099
29.5032 15.148 0.099
29.5083 15.273 0.100
29.5134 15.008 0.099
29.5185 15.277 0.100
29.5236 15.212 0.100
29.5287 15.144 0.099
29.5338 15.268 0.100
29.5389 15.478 0.100
29.5440 15.109 0.099
29.5492 15.234 0.100
29.5543 15.465 0.100
29.5594 15.382 0.100
29.5645 15.085 0.099
29.5696 15.386 0.100
29.5747 15.262 0.100
29.5798 15.318 0.100
29.5849 15.649 0.101
29.5900 15.237 0.100
29.5951 15.490 0.100
29.6002 15.498 0.100
29.6053 15.293 0.100
29.6104 15.581 0.101
29.6155 15.699 0.101
29.6206 15.668 0.101
29.6257 15.921 0.102
29.6308 16.003 0.102
29.6359 15.796 0.101
29.6410 16.300 0.103
29.6461 16.174 0.103
29.6512 16.273 0.103
29.6563 16.525 0.104
29.6614 16.878 0.105
29.6665 16.807 0.105
29.6716 17.008 0.105
29.6767 17.497 0.107
29.6818 17.729 0.107
29.6870 18.122 0.109
29.6921 18.710 0.110
29.6972 18.835 0.111
29.7023 19.415 0.112
29.7074 20.061 0.114
29.7125 20.428 0.115
29.7176 21.210 0.118
29.7227 22.034 0.120
29.7278 22.515 0.121
29.7329 23.720 0.124
29.7380 24.480 0.126
29.7431 25.418 0.129
29.7482 26.520 0.131
29.7533 27.286 0.133
29.7584 27.769 0.134
29.7635 28.971 0.137
29.7686 29.595 0.139
29.7737 29.368 0.138
29.7788 30.284 0.140
29.7839 30.158 0.140
29.7890 29.488 0.139
29.7941 29.426 0.138
29.7992 28.854 0.137
29.8043 27.801 0.135
29.8094 27.225 0.133
29.8145 26.426 0.131
29.8196 25.301 0.128
29.8248 24.607 0.127
29.8299 23.686 0.124
29.8350 22.577 0.121
29.8401 22.143 0.120
29.8452 21.180 0.117
29.8503 20.501 0.116
29.8554 19.803 0.114
29.8605 19.615 0.113
29.8656 19.150 0.112
29.8707 18.922 0.111
29.8758 18.737 0.110
29.8809 18.570 0.110
29.8860 18.635 0.110
29.8911 18.734 0.110
29.8962 18.268 0.109
29.9013 18.964 0.111
29.9064 19.190 0.112
29.9115 19.171 0.112
29.9166 19.460 0.113
29.9217 19.761 0.113
29.9268 19.889 0.114
29.9319 20.590 0.116
29.9370 21.049 0.117
29.9421 21.214 0.118
29.9472 21.693 0.119
29.9523 21.951 0.120
29.9574 21.903 0.119
29.9626 22.109 0.120
29.9677 22.160 0.120
29.9728 21.699 0.119
29.9779 21.989 0.120
29.9830 21.384 0.118
29.9881 20.783 0.116
29.9932 20.785 0.116
29.9983 20.166 0.115
30.0034 19.339 0.112
30.0085 18.910 0.111
30.0136 18.609 0.110
30.0187 18.010 0.108
30.0238 17.699 0.107
30.0289 17.116 0.106
30.0340 16.480 0.104
30.0391 16.193 0.103
30.0442 16.081 0.102
30.0493 15.518 0.101
30.0544 15.357 0.100
30.0595 15.375 0.100
30.0646 15.073 0.099
30.0697 14.751 0.098
30.0748 14.823 0.098
30.0799 14.686 0.098
30.0850 14.486 0.097
30.0901 14.554 0.097
30.0952 14.329 0.097
30.1004 14.373 0.097
30.1055 14.338 0.097
30.1106 14.260 0.096
30.1157 13.936 0.095
30.1208 14.106 0.096
30.1259 14.141 0.096
30.1310 14.063 0.096
30.1361 13.983 0.095
30.1412 14.037 0.096
30.1463 13.832 0.095
30.1514 14.066 0.096
30.1565 13.947 0.095
30.1616 13.617 0.094
30.1667 13.848 0.095
30.1718 13.621 0.094
30.1769 13.743 0.095
30.1820 13.900 0.095
30.1871 13.787 0.095
30.1922 13.736 0.095
30.1973 13.901 0.095
30.2024 13.645 0.094
30.2075 13.831 0.095
30.2126 13.717 0.094
30.2177 13.549 0.094
30.2228 13.529 0.094
30.2279 13.803 0.095
30.2330 13.703 0.094
30.2382 13.478 0.094
30.2433 13.577 0.094
30.2484 13.463 0.094
30.2535 13.574 0.094
30.2586 13.609 0.094
30.2637 13.673 0.094
30.2688 13.701 0.094
30.2739 13.620 0.094
30.2790 13.613 0.094
30.2841 13.299 0.093
30.2892 13.570 0.094
30.2943 13.715 0.094
30.2994 13.534 0.094
30.3045 13.613 0.094
30.3096 13.677 0.094
30.3147 13.431 0.094
30.3198 13.512 0.094
30.3249 13.542 0.094
30.3300 13.490 0.094
30.3351 13.520 0.094
30.3402 13.402 0.093
30.3453 13.448 0.094
30.3504 13.708 0.094
30.3555 13.611 0.094
30.3606 13.408 0.093
30.3657 13.613 0.094
30.3708 13.577 0.094
30.3760 13.520 0.094
30.3811 13.547 0.094
30.3862 13.626 0.094
30.3913 13.386 0.093
30.3964 13.460 0.094
30.4015 13.640 0.094
30.4066 13.646 0.094
30.4117 13.702 0.094
30.4168 13.529 0.094
30.4219 13.609 0.094
30.4270 13.745 0.095
30.4321 13.454 0.094
30.4372 13.327 0.093
30.4423 13.629 0.094
30.4474 13.634 0.094
30.4525 13.406 0.093
30.4576 13.572 0.094
30.4627 13.467 0.094
30.4678 13.535 0.094
30.4729 13.477 0.094
30.4780 13.564 0.094
30.4831 13.592 0.094
30.4882 13.321 0.093
30.4933 13.587 0.094
30.4984 13.529 0.094
30.5035 13.599 0.094
30.5086 13.719 0.095
30.5138 13.549 0.094
30.5189 13.702 0.094
30.5240 13.801 0.095
30.5291 13.572 0.094
30.5342 13.641 0.094
30.5393 13.801 0.095
30.5444 13.708 0.094
30.5495 13.756 0.095
30.5546 13.741 0.095
30.5597 13.682 0.094
30.5648 13.733 0.095
30.5699 13.969 0.095
30.5750 13.689 0.094
30.5801 13.796 0.095
30.5852 13.773 0.095
30.5903 13.607 0.094
30.5954 13.691 0.094
30.6005 13.930 0.095
30.6056 13.631 0.094
30.6107 13.756 0.095
30.6158 14.001 0.095
30.6209 13.774 0.095
30.6260 13.871 0.095
30.6311 13.865 0.095
30.6362 13.898 0.095
30.6413 13.965 0.095
30.6464 13.784 0.095
30.6516 14.035 0.096
30.6567 13.950 0.095
30.6618 14.003 0.095
30.6669 13.909 0.095
30.6720 14.189 0.096
30.6771 14.467 0.097
30.6822 13.837 0.095
30.6873 13.970 0.095
30.6924 14.405 0.097
30.6975 14.068 0.096
30.7026 14.008 0.095
30.7077 14.297 0.096
30.7128 14.275 0.096
30.7179 14.274 0.096
30.7230 14.237 0.096
30.7281 14.246 0.096
30.7332 14.419 0.097
30.7383 14.329 0.097
30.7434 14.309 0.097
30.7485 14.458 0.097
30.7536 14.565 0.097
30.7587 14.375 0.097
30.7638 14.565 0.097
30.7689 14.689 0.098
30.7740 14.342 0.097
30.7791 14.524 0.097
30.7842 14.846 0.098
30.7894 14.480 0.097
30.7945 14.604 0.098
30.7996 14.880 0.098
30.8047 14.684 0.098
30.8098 14.595 0.097
30.8149 14.855 0.098
30.8200 14.818 0.098
30.8251 14.835 0.098
30.8302 15.012 0.099
30.8353 14.758 0.098
30.8404 14.910 0.099
30.8455 15.084 0.099
30.8506 15.001 0.099
30.8557 15.163 0.099
30.8608 15.248 0.100
30.8659 15.047 0.099
30.8710 15.163 0.099
30.8761 15.321 0.100
30.8812 15.089 0.099
30.8863 15.246 0.100
30.8914 15.474 0.100
30.8965 15.179 0.099
30.9016 15.352 0.100
30.9067 15.499 0.100
30.9118 15.411 0.100
30.9169 15.355 0.100
30.9220 15.648 0.101
30.9272 15.416 0.100
30.9323 15.704 0.101
30.9374 15.548 0.101
30.9425 15.541 0.101
30.9476 15.681 0.101
30.9527 15.746 0.101
30.9578 15.760 0.101
30.9629 15.814 0.101
30.9680 15.844 0.102
30.9731 15.790 0.101
30.9782 15.816 0.101
30.9833 16.021 0.102
30.9884 15.749 0.101
30.9935 16.114 0.102
30.9986 16.138 0.103
31.0037 15.917 0.102
31.0088 16.087 0.102
31.0139 16.283 0.103
31.0190 16.179 0.103
31.0241 16.195 0.103
31.0292 16.370 0.103
31.0343 16.465 0.104
31.0394 16.457 0.104
31.0445 16.223 0.103
31.0496 16.428 0.103
31.0547 16.247 0.103
31.0598 16.422 0.103
31.0650 16.395 0.103
31.0701 16.435 0.103
31.0752 16.744 0.104
31.0803 16.521 0.104
31.0854 16.829 0.105
31.0905 16.723 0.104
31.0956 16.900 0.105
31.1007 16.852 0.105
31.1058 16.987 0.105
31.1109 16.932 0.105
31.1160 16.913 0.105
31.1211 17.057 0.105
31.1262 17.238 0.106
31.1313 16.906 0.105
31.1364 17.228 0.106
31.1415 17.207 0.106
31.1466 17.260 0.106
31.1517 17.145 0.106
31.1568 17.135 0.106
31.1619 17.186 0.106
31.1670 17.234 0.106
31.1721 17.259 0.106
31.1772 17.268 0.106
31.1823 17.479 0.107
31.1874 17.432 0.107
31.1925 17.242 0.106
31.1976 17.396 0.106
31.2028 17.491 0.107
31.2079 17.281 0.106
31.2130 17.510 0.107
31.2181 17.354 0.106
31.2232 17.464 0.107
31.2283 17.569 0.107
31.2334 17.294 0.106
31.2385 17.270 0.106
31.2436 17.541 0.107
31.2487 17.748 0.107
31.2538 17.219 0.106
31.2589 17.439 0.107
31.2640 17.690 0.107
31.2691 17.285 0.106
31.2742 17.439 0.107
31.2793 17.583 0.107
31.2844 17.426 0.107
31.2895 17.434 0.107
31.2946 17.581 0.107
31.2997 17.329 0.106
31.3048 17.525 0.107
31.3099 17.764 0.108
31.3150 17.560 0.107
31.3201 17.589 0.107
31.3252 17.855 0.108
31.3303 17.569 0.107
31.3354 17.721 0.107
31.3406 17.833 0.108
31.3457 17.350 0.106
31.3508 17.516 0.107
31.3559 17.863 0.108
31.3610 17.612 0.107
31.3661 17.841 0.108
31.3712 17.626 0.107
31.3763 17.450 0.107
31.3814 17.448 0.107
31.3865 17.667 0.107
31.3916 17.289 0.106
31.3967 17.619 0.107
31.4018 17.620 0.107
31.4069 17.146 0.106
31.4120 17.480 0.107
31.4171 17.758 0.108
31.4222 17.237 0.106
31.4273 17.319 0.106
31.4324 17.680 0.107
31.4375 17.459 0.107
31.4426 17.194 0.106
31.4477 17.529 0.107
31.4528 17.015 0.105
31.4579 17.264 0.106
31.4630 17.244 0.106
31.4681 16.931 0.105
31.4732 17.106 0.106
31.4784 17.090 0.105
31.4835 16.789 0.105
31.4886 16.919 0.105
31.4937 17.313 0.106
31.4988 16.794 0.105
31.5039 17.082 0.105
31.5090 17.202 0.106
31.5141 16.605 0.104
31.5192 16.922 0.105
31.5243 16.930 0.105
31.5294 16.594 0.104
31.5345 16.695 0.104
31.5396 16.933 0.105
31.5447 16.581 0.104
31.5498 16.668 0.104
31.5549 16.752 0.104
31.5600 16.445 0.103
31.5651 16.598 0.104
31.5702 16.613 0.104
31.5753 16.292 0.103
31.5804 16.348 0.103
31.5855 16.377 0.103
31.5906 15.989 0.102
31.5957 16.057 0.102
31.6008 16.214 0.103
31.6059 15.865 0.102
31.6110 16.033 0.102
31.6162 15.992 0.102
31.6213 15.928 0.102
31.6264 15.820 0.101
31.6315 16.036 0.102
31.6366 15.600 0.101
31.6417 15.721 0.101
31.6468 15.868 0.102
31.6519 15.428 0.100
31.6570 15.551 0.101
31.6621 15.736 0.101
31.6672 15.189 0.099
31.6723 15.429 0.100
31.6774 15.660 0.101
31.6825 15.172 0.099
31.6876 15.333 0.100
31.6927 15.389 0.100
31.6978 15.066 0.099
31.7029 15.128 0.099
31.7080 15.333 0.100
31.7131 14.850 0.098
31.7182 15.224 0.100
31.7233 14.988 0.099
31.7284 14.827 0.098
31.7335 14.874 0.098
31.7386 15.003 0.099
31.7437 14.718 0.098
31.7488 14.710 0.098
31.7540 14.850 0.098
31.7591 14.508 0.097
31.7642 14.576 0.097
31.7693 14.667 0.098
31.7744 14.240 0.096
31.7795 14.411 0.097
31.7846 14.400 0.097
31.7897 14.201 0.096
31.7948 14.271 0.096
31.7999 14.305 0.097
31.8050 14.140 0.096
31.8101 14.104 0.096
31.8152 13.858 0.095
31.8203 13.861 0.095
31.8254 13.791 0.095
31.8305 13.934 0.095
31.8356 13.762 0.095
31.8407 13.773 0.095
31.8458 13.936 0.095
31.8509 13.684 0.094
31.8560 13.731 0.095
31.8611 13.630 0.094
31.8662 13.706 0.094
31.8713 13.614 0.094
31.8764 13.851 0.095
31.8815 13.389 0.093
31.8866 13.544 0.094
31.8918 13.553 0.094
31.8969 13.346 0.093
31.9020 13.305 0.093
31.9071 13.376 0.093
31.9122 13.277 0.093
31.9173 13.251 0.093
31.9224 13.344 0.093
31.9275 13.139 0.092
31.9326 13.287 0.093
31.9377 13.296 0.093
31.9428 13.148 0.093
31.9479 12.968 0.092
31.9530 13.183 0.093
31.9581 13.206 0.093
31.9632 13.057 0.092
31.9683 13.018 0.092
31.9734 12.939 0.092
31.9785 12.795 0.091
31.9836 13.053 0.092
31.9887 12.926 0.092
31.9938 12.870 0.092
31.9989 12.828 0.091
32.0040 12.654 0.091
32.0091 12.812 0.091
32.0142 12.870 0.092
32.0193 12.809 0.091
32.0244 12.643 0.091
32.0296 12.924 0.092
32.0347 12.636 0.091
32.0398 12.779 0.091
32.0449 12.668 0.091
32.0500 12.609 0.091
32.0551 12.670 0.091
32.0602 12.678 0.091
32.0653 12.697 0.091
32.0704 12.536 0.090
32.0755 12.688 0.091
32.0806 12.666 0.091
32.0857 12.633 0.091
32.0908 12.648 0.091
32.0959 12.436 0.090
32.1010 12.639 0.091
32.1061 12.565 0.090
32.1112 12.456 0.090
32.1163 12.643 0.091
32.1214 12.574 0.090
32.1265 12.228 0.089
32.1316 12.529 0.090
32.1367 12.588 0.091
32.1418 12.469 0.090
32.1469 12.496 0.090
32.1520 12.538 0.090
32.1571 12.394 0.090
32.1622 12.604 0.091
32.1674 12.498 0.090
32.1725 12.421 0.090
32.1776 12.479 0.090
32.1827 12.561 0.090
32.1878 12.496 0.090
32.1929 12.609 0.091
32.1980 12.604 0.091
32.2031 12.490 0.090
32.2082 12.604 0.091
32.2133 12.352 0.090
32.2184 12.471 0.090
32.2235 12.400 0.090
32.2286 12.561 0.090
32.2337 12.302 0.089
32.2388 12.477 0.090
32.2439 12.593 0.091
32.2490 12.282 0.089
32.2541 12.406 0.090
32.2592 12.515 0.090
32.2643 12.401 0.090
32.2694 12.476 0.090
32.2745 12.615 0.091
32.2796 12.275 0.089
32.2847 12.573 0.090
32.2898 12.348 0.090
32.2949 12.555 0.090
32.3000 12.535 0.090
32.3052 12.520 0.090
32.3103 12.491 0.090
32.3154 12.635 0.091
32.3205 12.559 0.090
32.3256 12.426 0.090
32.3307 12.519 0.090
32.3358 12.451 0.090
32.3409 12.378 0.090
32.3460 12.401 0.090
32.3511 12.399 0.090
32.3562 12.448 0.090
32.3613 12.395 0.090
32.3664 12.478 0.090
32.3715 12.376 0.090
32.3766 12.639 0.091
32.3817 12.606 0.091
32.3868 12.399 0.090
32.3919 12.335 0.090
32.3970 12.680 0.091
32.4021 12.471 0.090
32.4072 12.443 0.090
32.4123 12.594 0.091
32.4174 12.489 0.090
32.4225 12.419 0.090
32.4276 12.826 0.091
32.4327 12.428 0.090
32.4378 12.495 0.090
32.4430 12.790 0.091
32.4481 12.585 0.091
32.4532 12.476 0.090
32.4583 12.652 0.091
32.4634 12.712 0.091
32.4685 12.559 0.090
32.4736 12.831 0.091
32.4787 12.641 0.091
32.4838 12.611 0.091
32.4889 12.753 0.091
32.4940 12.589 0.091
32.4991 12.736 0.091
32.5042 12.740 0.091
32.5093 12.701 0.091
32.5144 12.817 0.091
32.5195 12.848 0.091
32.5246 12.865 0.092
32.5297 12.770 0.091
32.5348 12.673 0.091
32.5399 12.872 0.092
32.5450 12.838 0.091
32.5501 12.822 0.091
32.5552 12.824 0.091
32.5603 12.674 0.091
32.5654 12.803 0.091
32.5705 12.946 0.092
32.5756 12.791 0.091
32.5808 12.755 0.091
32.5859 12.938 0.092
32.5910 12.766 0.091
32.5961 12.841 0.091
32.6012 12.828 0.091
32.6063 12.854 0.091
32.6114 12.829 0.091
32.6165 13.000 0.092
32.6216 12.945 0.092
32.6267 12.982 0.092
32.6318 13.120 0.092
32.6369 13.027 0.092
32.6420 12.917 0.092
32.6471 13.076 0.092
32.6522 12.888 0.092
32.6573 13.081 0.092
32.6624 12.986 0.092
32.6675 12.976 0.092
32.6726 12.889 0.092
32.6777 13.223 0.093
32.6828 13.063 0.092
32.6879 13.079 0.092
32.6930 13.328 0.093
32.6981 13.019 0.092
32.7032 13.222 0.093
32.7083 13.197 0.093
32.7134 13.074 0.092
32.7186 13.068 0.092
32.7237 13.085 0.092
32.7288 13.014 0.092
32.7339 13.227 0.093
32.7390 13.285 0.093
32.7441 13.099 0.092
32.7492 13.200 0.093
32.7543 13.333 0.093
32.7594 13.378 0.093
32.7645 13.437 0.094
32.7696 13.302 0.093
32.7747 13.197 0.093
32.7798 13.329 0.093
32.7849 13.300 0.093
32.7900 13.381 0.093
32.7951 13.355 0.093
32.8002 13.349 0.093
32.8053 13.257 0.093
32.8104 13.563 0.094
32.8155 13.480 0.094
32.8206 13.427 0.093
32.8257 13.403 0.093
32.8308 13.526 0.094
32.8359 13.538 0.094
32.8410 13.546 0.094
32.8461 13.665 0.094
32.8512 13.459 0.094
32.8564 13.669 0.094
32.8615 13.682 0.094
32.8666 13.299 0.093
32.8717 13.714 0.094
32.8768 13.724 0.095
32.8819 13.527 0.094
32.8870 13.598 0.094
32.8921 13.437 0.094
32.8972 13.399 0.093
32.9023 13.542 0.094
32.9074 13.659 0.094
32.9125 13.604 0.094
32.9176 13.613 0.094
32.9227 13.630 0.094
32.9278 13.578 0.094
32.9329 13.701 0.094
32.9380 13.751 0.095
32.9431 13.926 0.095
32.9482 13.851 0.095
32.9533 13.853 0.095
32.9584 13.585 0.094
32.9635 13.762 0.095
32.9686 13.960 0.095
32.9737 13.857 0.095
32.9788 14.003 0.095
32.9839 14.154 0.096
32.9890 13.971 0.095
32.9942 14.012 0.096
32.9993 14.214 0.096
33.0044 13.974 0.095
33.0095 14.114 0.096
33.0146 14.128 0.096
33.0197 14.097 0.096
33.0248 14.404 0.097
33.0299 14.499 0.097
33.0350 14.439 0.097
33.0401 14.724 0.098
33.0452 14.864 0.098
33.0503 14.735 0.098
33.0554 14.968 0.099
33.0605 15.202 0.099
33.0656 15.320 0.100
33.0707 15.397 0.100
33.0758 15.803 0.101
33.0809 15.911 0.102
33.0860 16.232 0.103
33.0911 16.656 0.104
33.0962 16.538 0.104
33.1013 16.934 0.105
33.1064 17.263 0.106
33.1115 17.208 0.106
33.1166 17.564 0.107
33.1217 18.025 0.108
33.1268 17.871 0.108
33.1320 18.127 0.109
33.1371 18.245 0.109
33.1422 18.103 0.109
33.1473 18.156 0.109
33.1524 18.048 0.108
33.1575 17.920 0.108
33.1626 17.735 0.107
33.1677 17.325 0.106
33.1728 17.176 0.106
33.1779 16.973 0.105
33.1830 16.705 0.104
33.1881 16.391 0.103
33.1932 16.581 0.104
33.1983 16.343 0.103
33.2034 16.107 0.102
33.2085 16.012 0.102
33.2136 16.145 0.103
33.2187 15.937 0.102
33.2238 15.984 0.102
33.2289 16.190 0.103
33.2340 16.163 0.103
33.2391 16.337 0.103
33.2442 16.566 0.104
33.2493 16.412 0.103
33.2544 16.716 0.104
33.2595 16.911 0.105
33.2646 17.078 0.105
33.2698 17.329 0.106
33.2749 17.637 0.107
33.2800 17.317 0.106
33.2851 17.931 0.108
33.2902 17.883 0.108
33.2953 17.863 0.108
33.3004 18.006 0.108
33.3055 18.168 0.109
33.3106 18.171 0.109
33.3157 18.367 0.109
33.3208 18.429 0.110
33.3259 18.296 0.109
33.3310 18.424 0.110
33.3361 18.268 0.109
33.3412 18.169 0.109
33.3463 18.354 0.109
33.3514 18.317 0.109
33.3565 18.048 0.108
33.3616 18.126 0.109
33.3667 18.472 0.110
33.3718 18.277 0.109
33.3769 18.310 0.109
33.3820 18.545 0.110
33.3871 18.583 0.110
33.3922 18.729 0.110
33.3973 18.893 0.111
33.4024 18.985 0.111
33.4076 19.339 0.112
33.4127 19.439 0.112
33.4178 19.602 0.113
33.4229 19.960 0.114
33.4280 20.038 0.114
33.4331 20.228 0.115
33.4382 20.289 0.115
33.4433 20.728 0.116
33.4484 20.632 0.116
33.4535 20.990 0.117
33.4586 20.961 0.117
33.4637 20.622 0.116
33.4688 20.704 0.116
33.4739 20.605 0.116
33.4790 20.430 0.115
33.4841 20.254 0.115
33.4892 19.942 0.114
33.4943 19.734 0.113
33.4994 19.886 0.114
33.5045 19.848 0.114
33.5096 19.235 0.112
33.5147 19.063 0.111
33.5198 18.829 0.111
33.5249 18.499 0.110
33.5300 18.502 0.110
33.5351 18.107 0.109
33.5402 17.734 0.107
33.5454 17.456 0.107
33.5505 17.389 0.106
33.5556 17.003 0.105
33.5607 16.509 0.104
33.5658 16.569 0.104
33.5709 16.219 0.103
33.5760 16.027 0.102
33.5811 16.007 0.102
33.5862 15.690 0.101
33.5913 15.823 0.101
33.5964 15.755 0.101
33.6015 15.706 0.101
33.6066 15.687 0.101
33.6117 15.851 0.102
33.6168 15.936 0.102
33.6219 15.737 0.101
33.6270 15.994 0.102
33.6321 15.888 0.102
33.6372 15.908 0.102
33.6423 16.036 0.102
33.6474 15.781 0.101
33.6525 15.734 0.101
33.6576 16.026 0.102
33.6627 15.680 0.101
33.6678 15.702 0.101
33.6729 15.792 0.101
33.6780 15.875 0.102
33.6832 15.602 0.101
33.6883 15.424 0.100
33.6934 15.238 0.100
33.6985 15.305 0.100
33.7036 15.158 0.099
33.7087 15.113 0.099
33.7138 14.948 0.099
33.7189 14.803 0.098
33.7240 14.421 0.097
33.7291 14.563 0.097
33.7342 14.535 0.097
33.7393 14.342 0.097
33.7444 14.116 0.096
33.7495 14.088 0.096
33.7546 13.906 0.095
33.7597 13.745 0.095
33.7648 13.762 0.095
33.7699 13.693 0.094
33.7750 13.346 0.093
33.7801 13.375 0.093
33.7852 13.271 0.093
33.7903 12.994 0.092
33.7954 12.964 0.092
33.8005 12.999 0.092
33.8056 12.718 0.091
33.8107 12.802 0.091
33.8158 12.734 0.091
33.8210 12.367 0.090
33.8261 12.455 0.090
33.8312 12.382 0.090
33.8363 12.455 0.090
33.8414 12.372 0.090
33.8465 12.386 0.090
33.8516 12.171 0.089
33.8567 12.546 0.090
33.8618 12.265 0.089
33.8669 12.227 0.089
33.8720 12.319 0.090
33.8771 12.260 0.089
33.8822 12.109 0.089
33.8873 12.225 0.089
33.8924 12.363 0.090
33.8975 12.171 0.089
33.9026 12.200 0.089
33.9077 12.242 0.089
33.9128 11.951 0.088
33.9179 11.972 0.088
33.9230 12.279 0.089
33.9281 11.952 0.088
33.9332 12.008 0.088
33.9383 12.100 0.089
33.9434 11.978 0.088
33.9485 11.890 0.088
33.9537 12.156 0.089
33.9588 12.007 0.088
33.9639 12.042 0.089
33.9690 12.071 0.089
33.9741 11.911 0.088
33.9792 11.805 0.088
33.9843 12.025 0.088
33.9894 11.910 0.088
33.9945 12.191 0.089
33.9996 12.029 0.088
34.0047 11.840 0.088
34.0098 12.072 0.089
34.0149 12.176 0.089
34.0200 11.921 0.088
34.0251 12.053 0.089
34.0302 12.248 0.089
34.0353 12.064 0.089
34.0404 12.232 0.089
34.0455 12.293 0.089
34.0506 11.926 0.088
34.0557 12.219 0.089
34.0608 12.296 0.089
34.0659 12.166 0.089
34.0710 12.049 0.089
34.0761 12.145 0.089
34.0812 11.967 0.088
34.0863 12.376 0.090
34.0915 12.328 0.090
34.0966 12.145 0.089
34.1017 12.317 0.090
34.1068 12.201 0.089
34.1119 12.085 0.089
34.1170 12.113 0.089
34.1221 12.187 0.089
34.1272 12.204 0.089
34.1323 12.273 0.089
34.1374 12.095 0.089
34.1425 12.214 0.089
34.1476 12.217 0.089
34.1527 12.124 0.089
34.1578 12.126 0.089
34.1629 12.209 0.089
34.1680 11.993 0.088
34.1731 12.037 0.089
34.1782 12.370 0.090
34.1833 12.258 0.089
34.1884 12.265 0.089
34.1935 12.257 0.089
34.1986 12.171 0.089
34.2037 12.095 0.089
34.2088 12.209 0.089
34.2139 12.317 0.090
34.2190 11.990 0.088
34.2241 12.296 0.089
34.2293 12.492 0.090
34.2344 12.239 0.089
34.2395 12.216 0.089
34.2446 12.198 0.089
34.2497 12.104 0.089
34.2548 12.290 0.089
34.2599 12.357 0.090
34.2650 12.238 0.089
34.2701 12.402 0.090
34.2752 12.288 0.089
34.2803 12.118 0.089
34.2854 12.262 0.089
34.2905 12.395 0.090
34.2956 12.224 0.089
34.3007 12.232 0.089
34.3058 12.482 0.090
34.3109 12.249 0.089
34.3160 12.432 0.090
34.3211 12.359 0.090
34.3262 12.528 0.090
34.3313 12.518 0.090
34.3364 12.613 0.091
34.3415 12.555 0.090
34.3466 12.475 0.090
34.3517 12.695 0.091
34.3568 12.476 0.090
34.3619 12.657 0.091
34.3671 12.507 0.090
34.3722 12.398 0.090
34.3773 12.622 0.091
34.3824 12.571 0.090
34.3875 12.495 0.090
34.3926 12.556 0.090
34.3977 12.747 0.091
34.4028 12.585 0.091
34.4079 12.697 0.091
34.4130 12.751 0.091
34.4181 12.505 0.090
34.4232 12.742 0.091
34.4283 12.858 0.091
34.4334 12.648 0.091
34.4385 12.798 0.091
34.4436 12.844 0.091
34.4487 12.721 0.091
34.4538 12.989 0.092
34.4589 12.761 0.091
34.4640 12.734 0.091
34.4691 12.774 0.091
34.4742 12.943 0.092
34.4793 12.769 0.091
34.4844 12.969 0.092
34.4895 12.878 0.092
34.4946 12.827 0.091
34.4997 12.850 0.091
34.5049 12.821 0.091
34.5100 12.836 0.091
34.5151 12.786 0.091
34.5202 13.004 0.092
34.5253 12.853 0.091
34.5304 12.844 0.091
34.5355 12.910 0.092
34.5406 12.932 0.092
34.5457 13.089 0.092
34.5508 12.973 0.092
34.5559 12.923 0.092
34.5610 12.980 0.092
34.5661 13.027 0.092
34.5712 13.026 0.092
34.5763 13.197 0.093
34.5814 13.102 0.092
34.5865 12.993 0.092
34.5916 13.242 0.093
34.5967 13.191 0.093
34.6018 13.249 0.093
34.6069 13.313 0.093
34.6120 13.273 0.093
34.6171 13.269 0.093
