'Id: "" Comment: "" Operator: "Lab Manager" Anode: "Mo" Scantype: "Coupled TwoTheta/Theta" TimePerStep: "288" X: "9999" Y: "9999" Z: "9999" 
10.0000 33.955 0.343
10.0071 34.431 0.346
10.0143 33.910 0.343
10.0214 33.736 0.342
10.0286 34.667 0.347
10.0357 33.201 0.340
10.0429 33.712 0.342
10.0500 33.920 0.343
10.0572 33.316 0.340
10.0643 33.764 0.342
10.0715 33.944 0.343
10.0786 33.858 0.343
10.0857 33.438 0.341
10.0929 33.378 0.340
10.1000 32.764 0.337
10.1072 32.920 0.338
10.1143 33.153 0.339
10.1215 33.000 0.339
10.1286 32.920 0.338
10.1358 32.462 0.336
10.1429 32.330 0.335
10.1500 33.059 0.339
10.1572 32.962 0.338
10.1643 32.913 0.338
10.1715 32.931 0.338
10.1786 32.167 0.334
10.1858 32.649 0.337
10.1929 32.802 0.337
10.2001 32.153 0.334
10.2072 32.167 0.334
10.2144 32.351 0.335
10.2215 32.514 0.336
10.2286 32.368 0.335
10.2358 31.653 0.332
10.2429 32.385 0.335
10.2501 31.833 0.332
10.2572 32.545 0.336
10.2644 32.344 0.335
10.2715 31.715 0.332
10.2787 31.872 0.333
10.2858 31.288 0.330
10.2930 32.587 0.336
10.3001 31.538 0.331
10.3072 31.431 0.330
10.3144 31.771 0.332
10.3215 31.740 0.332
10.3287 31.934 0.333
10.3358 31.069 0.328
10.3430 31.774 0.332
10.3501 31.219 0.329
10.3573 31.986 0.333
10.3644 30.837 0.327
10.3715 31.361 0.330
10.3787 31.330 0.330
10.3858 31.563 0.331
10.3930 31.340 0.330
10.4001 31.715 0.332
10.4073 31.052 0.328
10.4144 30.750 0.327
10.4216 31.156 0.329
10.4287 31.351 0.330
10.4359 30.378 0.325
10.4430 30.726 0.327
10.4501 31.000 0.328
10.4573 30.677 0.326
10.4644 31.142 0.329
10.4716 30.899 0.328
10.4787 31.469 0.331
10.4859 30.354 0.325
10.4930 30.816 0.327
10.5002 30.649 0.326
10.5073 30.951 0.328
10.5145 31.010 0.328
10.5216 31.069 0.328
10.5287 30.747 0.327
10.5359 30.427 0.325
10.5430 30.514 0.326
10.5502 30.538 0.326
10.5573 30.736 0.327
10.5645 30.441 0.325
10.5716 30.566 0.326
10.5788 30.830 0.327
10.5859 31.142 0.329
10.5931 29.851 0.322
10.6002 30.052 0.323
10.6073 30.292 0.324
10.6145 30.927 0.328
10.6216 30.146 0.324
10.6288 30.413 0.325
10.6359 30.375 0.325
10.6431 29.288 0.319
10.6502 29.813 0.322
10.6574 30.448 0.325
10.6645 30.104 0.323
10.6716 30.288 0.324
10.6788 29.854 0.322
10.6859 30.559 0.326
10.6931 29.531 0.320
10.7002 29.538 0.320
10.7074 30.035 0.323
10.7145 29.924 0.322
10.7217 29.743 0.321
10.7288 29.847 0.322
10.7360 30.167 0.324
10.7431 29.760 0.321
10.7502 29.875 0.322
10.7574 29.826 0.322
10.7645 29.330 0.319
10.7717 29.753 0.321
10.7788 29.979 0.323
10.7860 29.962 0.323
10.7931 30.139 0.323
10.8003 29.392 0.319
10.8074 30.063 0.323
10.8146 30.170 0.324
10.8217 29.854 0.322
10.8288 29.059 0.318
10.8360 30.194 0.324
10.8431 30.142 0.324
10.8503 29.552 0.320
10.8574 29.462 0.320
10.8646 29.642 0.321
10.8717 29.639 0.321
10.8789 30.017 0.323
10.8860 29.660 0.321
10.8931 29.806 0.322
10.9003 30.042 0.323
10.9074 29.729 0.321
10.9146 29.420 0.320
10.9217 29.198 0.318
10.9289 29.458 0.320
10.9360 30.052 0.323
10.9432 29.177 0.318
10.9503 29.830 0.322
10.9575 29.101 0.318
10.9646 29.240 0.319
10.9717 29.403 0.320
10.9789 29.372 0.319
10.9860 29.694 0.321
10.9932 29.125 0.318
11.0003 29.521 0.320
11.0075 29.521 0.320
11.0146 29.535 0.320
11.0218 29.122 0.318
11.0289 29.785 0.322
11.0361 29.840 0.322
11.0432 29.181 0.318
11.0503 28.722 0.316
11.0575 28.483 0.314
11.0646 29.653 0.321
11.0718 29.399 0.320
11.0789 29.146 0.318
11.0861 29.764 0.321
11.0932 28.847 0.316
11.1004 28.743 0.316
11.1075 29.326 0.319
11.1146 29.219 0.319
11.1218 29.875 0.322
11.1289 29.517 0.320
11.1361 29.705 0.321
11.1432 28.976 0.317
11.1504 28.969 0.317
11.1575 28.767 0.316
11.1647 29.420 0.320
11.1718 29.514 0.320
11.1790 28.802 0.316
11.1861 28.826 0.316
11.1932 29.444 0.320
11.2004 29.073 0.318
11.2075 29.125 0.318
11.2147 29.410 0.320
11.2218 29.385 0.319
11.2290 29.497 0.320
11.2361 29.396 0.319
11.2433 29.184 0.318
11.2504 29.264 0.319
11.2576 29.399 0.320
11.2647 29.465 0.320
11.2718 28.875 0.317
11.2790 29.215 0.318
11.2861 28.924 0.317
11.2933 28.993 0.317
11.3004 29.431 0.320
11.3076 29.132 0.318
11.3147 29.267 0.319
11.3219 28.924 0.317
11.3290 28.740 0.316
11.3362 29.378 0.319
11.3433 29.163 0.318
11.3504 28.288 0.313
11.3576 29.208 0.318
11.3647 29.063 0.318
11.3719 29.663 0.321
11.3790 28.813 0.316
11.3862 28.924 0.317
11.3933 28.972 0.317
11.4005 29.302 0.319
11.4076 29.573 0.320
11.4147 29.073 0.318
11.4219 28.965 0.317
11.4290 29.194 0.318
11.4362 28.583 0.315
11.4433 28.910 0.317
11.4505 29.444 0.320
11.4576 29.243 0.319
11.4648 29.295 0.319
11.4719 29.017 0.317
11.4791 28.722 0.316
11.4862 29.628 0.321
11.4933 29.462 0.320
11.5005 29.083 0.318
11.5076 28.490 0.315
11.5148 29.170 0.318
11.5219 29.097 0.318
11.5291 29.194 0.318
11.5362 29.219 0.319
11.5434 28.906 0.317
11.5505 29.451 0.320
11.5577 29.361 0.319
11.5648 29.160 0.318
11.5719 28.934 0.317
11.5791 30.021 0.323
11.5862 29.351 0.319
11.5934 29.090 0.318
11.6005 29.309 0.319
11.6077 29.188 0.318
11.6148 29.413 0.320
11.6220 29.333 0.319
11.6291 28.979 0.317
11.6362 29.118 0.318
11.6434 28.969 0.317
11.6505 29.438 0.320
11.6577 28.955 0.317
11.6648 28.538 0.315
11.6720 29.448 0.320
11.6791 29.507 0.320
11.6863 29.316 0.319
11.6934 29.323 0.319
11.7006 29.389 0.319
11.7077 29.389 0.319
11.7148 28.757 0.316
11.7220 28.549 0.315
11.7291 29.167 0.318
11.7363 29.021 0.317
11.7434 29.160 0.318
11.7506 28.538 0.315
11.7577 30.038 0.323
11.7649 29.247 0.319
11.7720 29.670 0.321
11.7792 29.514 0.320
11.7863 29.097 0.318
11.7934 29.688 0.321
11.8006 28.962 0.317
11.8077 29.455 0.320
11.8149 29.413 0.320
11.8220 29.028 0.317
11.8292 29.597 0.321
11.8363 29.240 0.319
11.8435 29.451 0.320
11.8506 29.715 0.321
11.8577 29.236 0.319
11.8649 29.497 0.320
11.8720 28.816 0.316
11.8792 29.503 0.320
11.8863 29.635 0.321
11.8935 28.927 0.317
11.9006 29.580 0.320
11.9078 29.917 0.322
11.9149 29.375 0.319
11.9221 29.753 0.321
11.9292 29.767 0.321
11.9363 29.132 0.318
11.9435 29.382 0.319
11.9506 29.295 0.319
11.9578 29.219 0.319
11.9649 29.236 0.319
11.9721 29.306 0.319
11.9792 29.340 0.319
11.9864 29.024 0.317
11.9935 29.198 0.318
12.0007 29.000 0.317
12.0078 29.566 0.320
12.0149 29.000 0.317
12.0221 29.535 0.320
12.0292 29.215 0.318
12.0364 29.410 0.320
12.0435 29.580 0.320
12.0507 28.785 0.316
12.0578 30.267 0.324
12.0650 29.601 0.321
12.0721 29.389 0.319
12.0792 29.462 0.320
12.0864 28.656 0.315
12.0935 28.944 0.317
12.1007 30.000 0.323
12.1078 29.965 0.323
12.1150 29.569 0.320
12.1221 29.396 0.319
12.1293 29.944 0.322
12.1364 29.309 0.319
12.1436 29.309 0.319
12.1507 29.281 0.319
12.1578 29.358 0.319
12.1650 29.031 0.317
12.1721 29.035 0.318
12.1793 29.483 0.320
12.1864 29.302 0.319
12.1936 29.656 0.321
12.2007 29.545 0.320
12.2079 29.076 0.318
12.2150 30.076 0.323
12.2222 29.281 0.319
12.2293 29.858 0.322
12.2364 29.792 0.322
12.2436 29.535 0.320
12.2507 29.167 0.318
12.2579 29.434 0.320
12.2650 29.483 0.320
12.2722 29.872 0.322
12.2793 29.566 0.320
12.2865 29.278 0.319
12.2936 28.924 0.317
12.3008 30.000 0.323
12.3079 29.854 0.322
12.3150 29.069 0.318
12.3222 29.535 0.320
12.3293 29.517 0.320
12.3365 29.142 0.318
12.3436 29.667 0.321
12.3508 29.444 0.320
12.3579 29.087 0.318
12.3651 29.535 0.320
12.3722 29.816 0.322
12.3793 29.115 0.318
12.3865 29.330 0.319
12.3936 29.500 0.320
12.4008 29.479 0.320
12.4079 29.510 0.320
12.4151 29.493 0.320
12.4222 29.997 0.323
12.4294 29.792 0.322
12.4365 29.326 0.319
12.4437 29.507 0.320
12.4508 28.590 0.315
12.4579 29.132 0.318
12.4651 29.528 0.320
12.4722 29.667 0.321
12.4794 29.326 0.319
12.4865 29.385 0.319
12.4937 29.288 0.319
12.5008 29.434 0.320
12.5080 29.740 0.321
12.5151 29.316 0.319
12.5223 29.344 0.319
12.5294 29.274 0.319
12.5365 29.583 0.320
12.5437 29.229 0.319
12.5508 29.038 0.318
12.5580 29.097 0.318
12.5651 28.826 0.316
12.5723 29.316 0.319
12.5794 29.250 0.319
12.5866 28.747 0.316
12.5937 29.424 0.320
12.6008 29.951 0.322
12.6080 29.111 0.318
12.6151 29.288 0.319
12.6223 29.417 0.320
12.6294 29.372 0.319
12.6366 29.858 0.322
12.6437 29.111 0.318
12.6509 28.986 0.317
12.6580 28.684 0.316
12.6652 29.413 0.320
12.6723 29.524 0.320
12.6794 29.045 0.318
12.6866 28.854 0.317
12.6937 29.125 0.318
12.7009 29.753 0.321
12.7080 29.188 0.318
12.7152 29.597 0.321
12.7223 29.549 0.320
12.7295 28.872 0.317
12.7366 28.535 0.315
12.7438 29.490 0.320
12.7509 28.865 0.317
12.7580 28.580 0.315
12.7652 29.000 0.317
12.7723 29.333 0.319
12.7795 29.170 0.318
12.7866 28.677 0.316
12.7938 29.014 0.317
12.8009 29.260 0.319
12.8081 28.372 0.314
12.8152 28.559 0.315
12.8223 29.111 0.318
12.8295 29.094 0.318
12.8366 28.531 0.315
12.8438 29.146 0.318
12.8509 28.583 0.315
12.8581 29.253 0.319
12.8652 29.028 0.317
12.8724 29.208 0.318
12.8795 28.951 0.317
12.8867 28.632 0.315
12.8938 28.833 0.316
12.9009 29.660 0.321
12.9081 28.806 0.316
12.9152 28.854 0.317
12.9224 28.740 0.316
12.9295 29.302 0.319
12.9367 28.951 0.317
12.9438 28.497 0.315
12.9510 28.781 0.316
12.9581 28.660 0.315
12.9653 28.698 0.316
12.9724 29.045 0.318
12.9795 28.191 0.313
12.9867 28.705 0.316
12.9938 28.149 0.313
13.0010 28.642 0.315
13.0081 28.573 0.315
13.0153 28.819 0.316
13.0224 28.955 0.317
13.0296 28.490 0.315
13.0367 28.583 0.315
13.0439 28.385 0.314
13.0510 28.087 0.312
13.0581 28.556 0.315
13.0653 28.490 0.315
13.0724 28.323 0.314
13.0796 27.503 0.309
13.0867 28.378 0.314
13.0939 28.503 0.315
13.1010 27.806 0.311
13.1082 28.583 0.315
13.1153 28.188 0.313
13.1224 28.253 0.313
13.1296 28.323 0.314
13.1367 28.125 0.313
13.1439 28.205 0.313
13.1510 28.292 0.313
13.1582 28.417 0.314
13.1653 28.247 0.313
13.1725 28.097 0.312
13.1796 27.601 0.310
13.1868 28.319 0.314
13.1939 28.382 0.314
13.2010 28.330 0.314
13.2082 27.389 0.308
13.2153 27.983 0.312
13.2225 27.247 0.308
13.2296 27.444 0.309
13.2368 27.219 0.307
13.2439 28.049 0.312
13.2511 27.788 0.311
13.2582 28.139 0.313
13.2654 27.979 0.312
13.2725 28.028 0.312
13.2796 27.375 0.308
13.2868 27.507 0.309
13.2939 27.771 0.311
13.3011 27.587 0.309
13.3082 27.108 0.307
13.3154 28.278 0.313
13.3225 28.205 0.313
13.3297 27.733 0.310
13.3368 27.583 0.309
13.3439 27.330 0.308
13.3511 27.139 0.307
13.3582 27.292 0.308
13.3654 27.330 0.308
13.3725 27.368 0.308
13.3797 27.642 0.310
13.3868 27.063 0.307
13.3940 27.191 0.307
13.4011 26.767 0.305
13.4083 27.622 0.310
13.4154 27.309 0.308
13.4225 26.938 0.306
13.4297 27.455 0.309
13.4368 27.712 0.310
13.4440 27.014 0.306
13.4511 27.306 0.308
13.4583 27.052 0.306
13.4654 26.885 0.306
13.4726 27.226 0.307
13.4797 26.701 0.304
13.4869 26.663 0.304
13.4940 27.174 0.307
13.5011 27.066 0.307
13.5083 26.934 0.306
13.5154 26.177 0.301
13.5226 26.608 0.304
13.5297 26.851 0.305
13.5369 26.295 0.302
13.5440 26.191 0.302
13.5512 25.750 0.299
13.5583 26.840 0.305
13.5654 26.684 0.304
13.5726 26.771 0.305
13.5797 26.802 0.305
13.5869 26.747 0.305
13.5940 26.313 0.302
13.6012 26.097 0.301
13.6083 26.222 0.302
13.6155 25.931 0.300
13.6226 26.729 0.305
13.6298 26.288 0.302
13.6369 26.563 0.304
13.6440 26.660 0.304
13.6512 26.462 0.303
13.6583 25.837 0.300
13.6655 26.500 0.303
13.6726 25.816 0.299
13.6798 26.486 0.303
13.6869 25.993 0.300
13.6941 26.753 0.305
13.7012 25.910 0.300
13.7084 26.014 0.301
13.7155 26.149 0.301
13.7226 25.545 0.298
13.7298 25.566 0.298
13.7369 26.007 0.301
13.7441 26.042 0.301
13.7512 25.976 0.300
13.7584 25.885 0.300
13.7655 25.257 0.296
13.7727 25.372 0.297
13.7798 25.774 0.299
13.7869 25.531 0.298
13.7941 24.760 0.293
13.8012 25.073 0.295
13.8084 25.378 0.297
13.8155 25.767 0.299
13.8227 25.514 0.298
13.8298 25.385 0.297
13.8370 25.219 0.296
13.8441 25.281 0.296
13.8513 25.365 0.297
13.8584 25.215 0.296
13.8655 25.240 0.296
13.8727 25.233 0.296
13.8798 24.979 0.295
13.8870 24.823 0.294
13.8941 25.035 0.295
13.9013 25.313 0.296
13.9084 25.125 0.295
13.9156 24.799 0.293
13.9227 25.056 0.295
13.9299 24.906 0.294
13.9370 24.604 0.292
13.9441 24.875 0.294
13.9513 25.330 0.297
13.9584 25.104 0.295
13.9656 24.691 0.293
13.9727 24.392 0.291
13.9799 24.764 0.293
13.9870 25.295 0.296
13.9942 24.410 0.291
14.0013 24.267 0.290
14.0085 24.691 0.293
14.0156 24.306 0.291
14.0227 24.632 0.292
14.0299 23.976 0.289
14.0370 24.490 0.292
14.0442 24.465 0.291
14.0513 24.396 0.291
14.0585 24.892 0.294
14.0656 23.792 0.287
14.0728 23.837 0.288
14.0799 23.622 0.286
14.0870 24.028 0.289
14.0942 24.063 0.289
14.1013 23.885 0.288
14.1085 23.628 0.286
14.1156 24.549 0.292
14.1228 24.184 0.290
14.1299 24.014 0.289
14.1371 24.056 0.289
14.1442 23.792 0.287
14.1514 23.694 0.287
14.1585 24.250 0.290
14.1656 24.021 0.289
14.1728 24.160 0.290
14.1799 23.271 0.284
14.1871 23.347 0.285
14.1942 23.611 0.286
14.2014 23.819 0.288
14.2085 23.372 0.285
14.2157 23.694 0.287
14.2228 24.215 0.290
14.2300 23.184 0.284
14.2371 24.399 0.291
14.2442 23.344 0.285
14.2514 23.122 0.283
14.2585 23.010 0.283
14.2657 23.288 0.284
14.2728 23.962 0.288
14.2800 22.983 0.282
14.2871 23.385 0.285
14.2943 22.889 0.282
14.3014 22.750 0.281
14.3085 23.177 0.284
14.3157 23.007 0.283
14.3228 23.205 0.284
14.3300 22.726 0.281
14.3371 22.840 0.282
14.3443 22.882 0.282
14.3514 22.563 0.280
14.3586 22.743 0.281
14.3657 22.302 0.278
14.3729 22.569 0.280
14.3800 22.955 0.282
14.3871 22.750 0.281
14.3943 22.431 0.279
14.4014 22.719 0.281
14.4086 22.740 0.281
14.4157 22.601 0.280
14.4229 22.920 0.282
14.4300 22.365 0.279
14.4372 22.503 0.280
14.4443 22.163 0.277
14.4515 21.747 0.275
14.4586 21.920 0.276
14.4657 21.858 0.275
14.4729 22.295 0.278
14.4800 22.167 0.277
14.4872 22.375 0.279
14.4943 21.872 0.276
14.5015 22.392 0.279
14.5086 22.087 0.277
14.5158 22.431 0.279
14.5229 22.097 0.277
14.5300 21.743 0.275
14.5372 22.028 0.277
14.5443 21.566 0.274
14.5515 21.854 0.275
14.5586 22.128 0.277
14.5658 21.479 0.273
14.5729 21.660 0.274
14.5801 21.823 0.275
14.5872 21.837 0.275
14.5944 21.951 0.276
14.6015 21.389 0.273
14.6086 21.500 0.273
14.6158 21.563 0.274
14.6229 21.528 0.273
14.6301 21.611 0.274
14.6372 21.771 0.275
14.6444 21.316 0.272
14.6515 21.392 0.273
14.6587 21.347 0.272
14.6658 21.538 0.273
14.6730 21.049 0.270
14.6801 21.660 0.274
14.6872 21.431 0.273
14.6944 21.792 0.275
14.7015 20.924 0.270
14.7087 20.931 0.270
14.7158 21.056 0.270
14.7230 20.944 0.270
14.7301 21.125 0.271
14.7373 20.774 0.269
14.7444 20.979 0.270
14.7516 20.819 0.269
14.7587 20.854 0.269
14.7658 20.635 0.268
14.7730 20.670 0.268
14.7801 20.653 0.268
14.7873 20.507 0.267
14.7944 20.691 0.268
14.8016 20.427 0.266
14.8087 20.507 0.267
14.8159 20.545 0.267
14.8230 20.375 0.266
14.8301 20.253 0.265
14.8373 20.215 0.265
14.8444 20.361 0.266
14.8516 20.587 0.267
14.8587 20.656 0.268
14.8659 20.024 0.264
14.8730 20.372 0.266
14.8802 20.420 0.266
14.8873 20.726 0.268
14.8945 20.503 0.267
14.9016 19.813 0.262
14.9087 20.278 0.265
14.9159 19.462 0.260
14.9230 20.608 0.267
14.9302 19.618 0.261
14.9373 20.354 0.266
14.9445 19.392 0.259
14.9516 19.872 0.263
14.9588 19.497 0.260
14.9659 19.903 0.263
14.9731 20.007 0.264
14.9802 19.965 0.263
14.9873 19.882 0.263
14.9945 19.462 0.260
15.0016 19.847 0.263
15.0088 19.799 0.262
15.0159 19.760 0.262
15.0231 19.979 0.263
15.0302 19.438 0.260
15.0374 19.816 0.262
15.0445 19.503 0.260
15.0516 19.646 0.261
15.0588 19.319 0.259
15.0659 19.701 0.262
15.0731 19.493 0.260
15.0802 19.712 0.262
15.0874 19.160 0.258
15.0945 19.101 0.258
15.1017 19.427 0.260
15.1088 19.292 0.259
15.1160 19.313 0.259
15.1231 19.056 0.257
15.1302 18.896 0.256
15.1374 19.024 0.257
15.1445 19.170 0.258
15.1517 18.840 0.256
15.1588 18.889 0.256
15.1660 19.104 0.258
15.1731 19.135 0.258
15.1803 19.597 0.261
15.1874 19.226 0.258
15.1946 18.951 0.257
15.2017 19.375 0.259
15.2088 19.559 0.261
15.2160 19.375 0.259
15.2231 18.639 0.254
15.2303 18.854 0.256
15.2374 18.507 0.253
15.2446 18.510 0.254
15.2517 18.715 0.255
15.2589 19.003 0.257
15.2660 18.431 0.253
15.2731 18.608 0.254
15.2803 18.694 0.255
15.2874 18.323 0.252
15.2946 18.448 0.253
15.3017 18.632 0.254
15.3089 18.760 0.255
15.3160 18.646 0.254
15.3232 18.365 0.253
15.3303 18.087 0.251
15.3375 18.688 0.255
15.3446 18.191 0.251
15.3517 18.878 0.256
15.3589 18.361 0.252
15.3660 18.122 0.251
15.3732 17.628 0.247
15.3803 18.347 0.252
15.3875 18.250 0.252
15.3946 18.087 0.251
15.4018 17.615 0.247
15.4089 18.309 0.252
15.4161 18.111 0.251
15.4232 17.455 0.246
15.4303 18.233 0.252
15.4375 17.986 0.250
15.4446 17.906 0.249
15.4518 18.059 0.250
15.4589 17.458 0.246
15.4661 17.549 0.247
15.4732 17.625 0.247
15.4804 18.063 0.250
15.4875 17.882 0.249
15.4946 17.490 0.246
15.5018 17.361 0.246
15.5089 17.774 0.248
15.5161 17.701 0.248
15.5232 17.785 0.249
15.5304 17.226 0.245
15.5375 17.847 0.249
15.5447 17.903 0.249
15.5518 17.656 0.248
15.5590 17.778 0.248
15.5661 18.000 0.250
15.5732 17.951 0.250
15.5804 17.719 0.248
15.5875 17.358 0.245
15.5947 18.097 0.251
15.6018 17.632 0.247
15.6090 17.375 0.246
15.6161 17.333 0.245
15.6233 17.010 0.243
15.6304 16.917 0.242
15.6376 17.309 0.245
15.6447 17.233 0.245
15.6518 17.208 0.244
15.6590 17.205 0.244
15.6661 17.139 0.244
15.6733 17.056 0.243
15.6804 17.111 0.244
15.6876 16.910 0.242
15.6947 16.986 0.243
15.7019 17.229 0.245
15.7090 17.163 0.244
15.7162 16.944 0.243
15.7233 17.160 0.244
15.7304 16.951 0.243
15.7376 17.281 0.245
15.7447 17.094 0.244
15.7519 17.396 0.246
15.7590 17.028 0.243
15.7662 16.885 0.242
15.7733 16.583 0.240
15.7805 17.285 0.245
15.7876 16.774 0.241
15.7947 16.722 0.241
15.8019 16.847 0.242
15.8090 17.201 0.244
15.8162 16.882 0.242
15.8233 16.733 0.241
15.8305 16.729 0.241
15.8376 16.903 0.242
15.8448 17.642 0.248
15.8519 16.993 0.243
15.8591 17.042 0.243
15.8662 17.476 0.246
15.8733 17.170 0.244
15.8805 17.010 0.243
15.8876 16.545 0.240
15.8948 17.056 0.243
15.9019 17.104 0.244
15.9091 17.705 0.248
15.9162 17.465 0.246
15.9234 17.444 0.246
15.9305 17.861 0.249
15.9377 17.670 0.248
15.9448 18.063 0.250
15.9519 17.788 0.249
15.9591 18.413 0.253
15.9662 18.330 0.252
15.9734 18.271 0.252
15.9805 18.264 0.252
15.9877 18.181 0.251
15.9948 18.972 0.257
16.0020 18.622 0.254
16.0091 18.847 0.256
16.0162 18.920 0.256
16.0234 19.063 0.257
16.0305 19.608 0.261
16.0377 19.073 0.257
16.0448 19.115 0.258
16.0520 19.226 0.258
16.0591 19.854 0.263
16.0663 20.198 0.265
16.0734 19.726 0.262
16.0806 20.194 0.265
16.0877 19.997 0.264
16.0948 20.389 0.266
16.1020 20.385 0.266
16.1091 20.271 0.265
16.1163 20.260 0.265
16.1234 20.656 0.268
16.1306 19.882 0.263
16.1377 20.694 0.268
16.1449 20.351 0.266
16.1520 20.163 0.265
16.1592 20.347 0.266
16.1663 20.472 0.267
16.1734 20.490 0.267
16.1806 20.583 0.267
16.1877 20.385 0.266
16.1949 20.420 0.266
16.2020 20.333 0.266
16.2092 20.649 0.268
16.2163 20.323 0.266
16.2235 20.014 0.264
16.2306 20.399 0.266
16.2377 20.017 0.264
16.2449 20.104 0.264
16.2520 20.309 0.266
16.2592 19.719 0.262
16.2663 20.538 0.267
16.2735 19.677 0.261
16.2806 20.285 0.265
16.2878 20.198 0.265
16.2949 20.226 0.265
16.3021 20.667 0.268
16.3092 20.222 0.265
16.3163 21.118 0.271
16.3235 21.510 0.273
16.3306 21.201 0.271
16.3378 21.573 0.274
16.3449 22.528 0.280
16.3521 22.694 0.281
16.3592 22.757 0.281
16.3664 23.285 0.284
16.3735 23.698 0.287
16.3807 24.806 0.293
16.3878 26.010 0.301
16.3949 27.444 0.309
16.4021 28.326 0.314
16.4092 29.205 0.318
16.4164 29.535 0.320
16.4235 31.708 0.332
16.4307 31.646 0.331
16.4378 33.389 0.340
16.4450 34.424 0.346
16.4521 35.313 0.350
16.4593 36.163 0.354
16.4664 37.521 0.361
16.4735 38.076 0.364
16.4807 38.285 0.365
16.4878 42.021 0.382
16.4950 42.292 0.383
16.5021 44.809 0.394
16.5093 48.000 0.408
16.5164 49.802 0.416
16.5236 50.892 0.420
16.5307 52.885 0.429
16.5378 51.861 0.424
16.5450 49.910 0.416
16.5521 47.535 0.406
16.5593 43.438 0.388
16.5664 40.740 0.376
16.5736 37.917 0.363
16.5807 35.667 0.352
16.5879 33.497 0.341
16.5950 33.271 0.340
16.6022 32.188 0.334
16.6093 32.181 0.334
16.6164 32.743 0.337
16.6236 33.507 0.341
16.6307 33.444 0.341
16.6379 32.764 0.337
16.6450 31.500 0.331
16.6522 29.882 0.322
16.6593 28.111 0.312
16.6665 26.174 0.301
16.6736 24.333 0.291
16.6808 22.764 0.281
16.6879 21.080 0.271
16.6950 20.399 0.266
16.7022 20.319 0.266
16.7093 19.740 0.262
16.7165 19.222 0.258
16.7236 18.618 0.254
16.7308 18.479 0.253
16.7379 18.715 0.255
16.7451 18.278 0.252
16.7522 18.392 0.253
16.7593 18.688 0.255
16.7665 18.111 0.251
16.7736 18.101 0.251
16.7808 18.354 0.252
16.7879 18.163 0.251
16.7951 18.049 0.250
16.8022 18.219 0.252
16.8094 18.264 0.252
16.8165 18.243 0.252
16.8237 17.906 0.249
16.8308 17.767 0.248
16.8379 17.667 0.248
16.8451 17.500 0.247
16.8522 17.885 0.249
16.8594 18.368 0.253
16.8665 18.479 0.253
16.8737 17.573 0.247
16.8808 18.278 0.252
16.8880 17.861 0.249
16.8951 17.833 0.249
16.9023 18.389 0.253
16.9094 18.069 0.250
16.9165 18.056 0.250
16.9237 17.965 0.250
16.9308 18.233 0.252
16.9380 18.358 0.252
16.9451 18.417 0.253
16.9523 18.094 0.251
16.9594 18.705 0.255
16.9666 17.819 0.249
16.9737 18.649 0.254
16.9808 18.444 0.253
16.9880 18.174 0.251
16.9951 18.580 0.254
17.0023 18.993 0.257
17.0094 18.816 0.256
17.0166 19.628 0.261
17.0237 19.438 0.260
17.0309 19.264 0.259
17.0380 19.799 0.262
17.0452 19.705 0.262
17.0523 20.073 0.264
17.0594 20.031 0.264
17.0666 20.785 0.269
17.0737 21.080 0.271
17.0809 21.396 0.273
17.0880 22.733 0.281
17.0952 22.531 0.280
17.1023 23.042 0.283
17.1095 24.170 0.290
17.1166 24.132 0.289
17.1238 24.708 0.293
17.1309 24.531 0.292
17.1380 24.399 0.291
17.1452 25.153 0.296
17.1523 24.670 0.293
17.1595 24.431 0.291
17.1666 24.767 0.293
17.1738 24.688 0.293
17.1809 24.615 0.292
17.1881 24.736 0.293
17.1952 25.222 0.296
17.2023 26.236 0.302
17.2095 26.639 0.304
17.2166 26.837 0.305
17.2238 27.792 0.311
17.2309 28.969 0.317
17.2381 29.462 0.320
17.2452 30.226 0.324
17.2524 31.590 0.331
17.2595 31.701 0.332
17.2667 30.764 0.327
17.2738 30.965 0.328
17.2809 29.431 0.320
17.2881 27.069 0.307
17.2952 25.851 0.300
17.3024 23.792 0.287
17.3095 22.191 0.278
17.3167 21.538 0.273
17.3238 21.507 0.273
17.3310 21.003 0.270
17.3381 21.549 0.274
17.3453 21.889 0.276
17.3524 21.351 0.272
17.3595 22.128 0.277
17.3667 21.938 0.276
17.3738 21.340 0.272
17.3810 21.146 0.271
17.3881 20.615 0.268
17.3953 19.389 0.259
17.4024 18.479 0.253
17.4096 17.399 0.246
17.4167 17.087 0.244
17.4239 16.448 0.239
17.4310 16.476 0.239
17.4381 16.160 0.237
17.4453 16.240 0.237
17.4524 15.701 0.233
17.4596 15.094 0.229
17.4667 14.885 0.227
17.4739 15.108 0.229
17.4810 14.802 0.227
17.4882 15.069 0.229
17.4953 14.920 0.228
17.5024 15.264 0.230
17.5096 14.476 0.224
17.5167 14.646 0.226
17.5239 14.417 0.224
17.5310 14.906 0.228
17.5382 14.438 0.224
17.5453 14.771 0.226
17.5525 15.024 0.228
17.5596 14.608 0.225
17.5668 14.896 0.227
17.5739 14.531 0.225
17.5810 15.160 0.229
17.5882 14.455 0.224
17.5953 14.972 0.228
17.6025 14.701 0.226
17.6096 14.538 0.225
17.6168 14.483 0.224
17.6239 14.753 0.226
17.6311 14.281 0.223
17.6382 14.646 0.226
17.6454 14.517 0.225
17.6525 14.889 0.227
17.6596 14.569 0.225
17.6668 14.809 0.227
17.6739 14.226 0.222
17.6811 14.253 0.222
17.6882 14.628 0.225
17.6954 14.517 0.225
17.7025 14.906 0.228
17.7097 14.462 0.224
17.7168 14.160 0.222
17.7239 13.955 0.220
17.7311 14.375 0.223
17.7382 14.472 0.224
17.7454 14.372 0.223
17.7525 14.670 0.226
17.7597 14.500 0.224
17.7668 14.163 0.222
17.7740 14.444 0.224
17.7811 14.323 0.223
17.7883 14.431 0.224
17.7954 14.146 0.222
17.8025 14.507 0.224
17.8097 13.799 0.219
17.8168 13.983 0.220
17.8240 14.156 0.222
17.8311 14.538 0.225
17.8383 13.885 0.220
17.8454 14.507 0.224
17.8526 14.392 0.224
17.8597 14.122 0.221
17.8669 13.899 0.220
17.8740 14.097 0.221
17.8811 14.569 0.225
17.8883 13.931 0.220
17.8954 14.462 0.224
17.9026 14.392 0.224
17.9097 14.184 0.222
17.9169 14.059 0.221
17.9240 13.844 0.219
17.9312 13.622 0.217
17.9383 13.875 0.219
17.9454 13.760 0.219
17.9526 14.083 0.221
17.9597 13.753 0.219
17.9669 14.097 0.221
17.9740 13.809 0.219
17.9812 14.028 0.221
17.9883 14.017 0.221
17.9955 13.951 0.220
18.0026 13.729 0.218
18.0098 14.083 0.221
18.0169 14.042 0.221
18.0240 13.688 0.218
18.0312 13.861 0.219
18.0383 13.507 0.217
18.0455 13.750 0.219
18.0526 14.118 0.221
18.0598 13.656 0.218
18.0669 13.528 0.217
18.0741 13.556 0.217
18.0812 13.823 0.219
18.0884 13.993 0.220
18.0955 13.795 0.219
18.1026 13.594 0.217
18.1098 14.181 0.222
18.1169 13.542 0.217
18.1241 14.031 0.221
18.1312 13.826 0.219
18.1384 13.813 0.219
18.1455 13.431 0.216
18.1527 13.354 0.215
18.1598 13.528 0.217
18.1670 13.521 0.217
18.1741 13.924 0.220
18.1812 13.736 0.218
18.1884 13.451 0.216
18.1955 13.917 0.220
18.2027 13.694 0.218
18.2098 13.340 0.215
18.2170 13.726 0.218
18.2241 13.424 0.216
18.2313 13.660 0.218
18.2384 13.434 0.216
18.2455 13.479 0.216
18.2527 13.934 0.220
18.2598 13.392 0.216
18.2670 13.132 0.214
18.2741 13.625 0.218
18.2813 13.767 0.219
18.2884 13.392 0.216
18.2956 13.542 0.217
18.3027 13.201 0.214
18.3099 13.024 0.213
18.3170 13.063 0.213
18.3241 13.128 0.214
18.3313 13.372 0.215
18.3384 13.212 0.214
18.3456 13.434 0.216
18.3527 13.399 0.216
18.3599 13.344 0.215
18.3670 13.431 0.216
18.3742 13.042 0.213
18.3813 13.212 0.214
18.3885 13.208 0.214
18.3956 13.378 0.216
18.4027 13.177 0.214
18.4099 12.979 0.212
18.4170 13.003 0.212
18.4242 13.340 0.215
18.4313 12.962 0.212
18.4385 13.472 0.216
18.4456 13.250 0.214
18.4528 13.372 0.215
18.4599 13.146 0.214
18.4670 12.569 0.209
18.4742 12.997 0.212
18.4813 12.875 0.211
18.4885 13.076 0.213
18.4956 12.920 0.212
18.5028 13.243 0.214
18.5099 13.101 0.213
18.5171 13.153 0.214
18.5242 13.128 0.214
18.5314 12.896 0.212
18.5385 12.819 0.211
18.5456 13.056 0.213
18.5528 13.309 0.215
18.5599 12.733 0.210
18.5671 12.563 0.209
18.5742 13.000 0.212
18.5814 12.851 0.211
18.5885 13.201 0.214
18.5957 12.528 0.209
18.6028 12.872 0.211
18.6100 12.913 0.212
18.6171 12.677 0.210
18.6242 12.809 0.211
18.6314 12.601 0.209
18.6385 12.663 0.210
18.6457 12.563 0.209
18.6528 12.524 0.209
18.6600 12.965 0.212
18.6671 12.903 0.212
18.6743 12.778 0.211
18.6814 12.677 0.210
18.6885 12.684 0.210
18.6957 12.566 0.209
18.7028 12.986 0.212
18.7100 12.347 0.207
18.7171 12.740 0.210
18.7243 12.361 0.207
18.7314 12.347 0.207
18.7386 12.924 0.212
18.7457 12.538 0.209
18.7529 12.719 0.210
18.7600 12.781 0.211
18.7671 12.601 0.209
18.7743 12.535 0.209
18.7814 12.490 0.208
18.7886 12.260 0.206
18.7957 12.635 0.209
18.8029 12.427 0.208
18.8100 12.771 0.211
18.8172 12.552 0.209
18.8243 12.656 0.210
18.8315 12.368 0.207
18.8386 12.736 0.210
18.8457 12.122 0.205
18.8529 12.309 0.207
18.8600 12.778 0.211
18.8672 12.729 0.210
18.8743 12.476 0.208
18.8815 12.767 0.211
18.8886 12.056 0.205
18.8958 12.413 0.208
18.9029 12.503 0.208
18.9100 12.750 0.210
18.9172 12.205 0.206
18.9243 12.260 0.206
18.9315 12.785 0.211
18.9386 12.163 0.206
18.9458 12.128 0.205
18.9529 12.340 0.207
18.9601 12.101 0.205
18.9672 12.410 0.208
18.9744 12.406 0.208
18.9815 12.118 0.205
18.9886 12.181 0.206
18.9958 11.955 0.204
19.0029 12.389 0.207
19.0101 12.240 0.206
19.0172 12.052 0.205
19.0244 11.896 0.203
19.0315 12.316 0.207
19.0387 12.205 0.206
19.0458 12.146 0.205
19.0530 12.194 0.206
19.0601 12.337 0.207
19.0672 12.104 0.205
19.0744 12.132 0.205
19.0815 11.986 0.204
19.0887 12.233 0.206
19.0958 11.885 0.203
19.1030 12.535 0.209
19.1101 12.094 0.205
19.1173 12.375 0.207
19.1244 12.184 0.206
19.1316 12.313 0.207
19.1387 12.111 0.205
19.1458 12.233 0.206
19.1530 12.528 0.209
19.1601 12.021 0.204
19.1673 12.503 0.208
19.1744 12.594 0.209
19.1816 12.201 0.206
19.1887 12.549 0.209
19.1959 12.476 0.208
19.2030 12.542 0.209
19.2101 12.448 0.208
19.2173 12.580 0.209
19.2244 12.958 0.212
19.2316 12.913 0.212
19.2387 12.753 0.210
19.2459 13.198 0.214
19.2530 13.253 0.215
19.2602 13.462 0.216
19.2673 14.052 0.221
19.2745 13.642 0.218
19.2816 14.125 0.221
19.2887 14.087 0.221
19.2959 13.951 0.220
19.3030 14.517 0.225
19.3102 15.007 0.228
19.3173 14.781 0.227
19.3245 15.747 0.234
19.3316 16.233 0.237
19.3388 16.271 0.238
19.3459 16.372 0.238
19.3531 17.069 0.243
19.3602 17.181 0.244
19.3673 17.868 0.249
19.3745 17.948 0.250
19.3816 17.997 0.250
19.3888 18.427 0.253
19.3959 18.740 0.255
19.4031 18.587 0.254
19.4102 18.851 0.256
19.4174 18.993 0.257
19.4245 18.913 0.256
19.4316 19.083 0.257
19.4388 19.014 0.257
19.4459 19.094 0.257
19.4531 19.368 0.259
19.4602 19.965 0.263
19.4674 19.760 0.262
19.4745 19.847 0.263
19.4817 20.038 0.264
19.4888 20.608 0.267
19.4960 20.806 0.269
19.5031 20.757 0.268
19.5102 20.854 0.269
19.5174 20.882 0.269
19.5245 20.545 0.267
19.5317 21.774 0.275
19.5388 21.049 0.270
19.5460 21.458 0.273
19.5531 21.260 0.272
19.5603 21.014 0.270
19.5674 21.111 0.271
19.5746 21.007 0.270
19.5817 21.028 0.270
19.5888 20.847 0.269
19.5960 21.219 0.271
19.6031 20.951 0.270
19.6103 20.753 0.268
19.6174 20.424 0.266
19.6246 20.816 0.269
19.6317 20.177 0.265
19.6389 20.368 0.266
19.6460 20.226 0.265
19.6531 20.441 0.266
19.6603 20.726 0.268
19.6674 21.135 0.271
19.6746 20.559 0.267
19.6817 20.302 0.266
19.6889 20.413 0.266
19.6960 21.167 0.271
19.7032 21.944 0.276
19.7103 21.903 0.276
19.7175 22.132 0.277
19.7246 22.771 0.281
19.7317 23.361 0.285
19.7389 24.365 0.291
19.7460 25.108 0.295
19.7532 25.868 0.300
19.7603 26.281 0.302
19.7675 28.163 0.313
19.7746 29.597 0.321
19.7818 30.517 0.326
19.7889 32.573 0.336
19.7961 34.924 0.348
19.8032 36.097 0.354
19.8103 38.889 0.367
19.8175 40.514 0.375
19.8246 42.517 0.384
19.8318 44.243 0.392
19.8389 46.844 0.403
19.8461 48.597 0.411
19.8532 50.108 0.417
19.8604 52.007 0.425
19.8675 53.764 0.432
19.8747 56.285 0.442
19.8818 58.726 0.452
19.8889 61.910 0.464
19.8961 65.069 0.475
19.9032 68.309 0.487
19.9104 71.743 0.499
19.9175 76.090 0.514
19.9247 77.760 0.520
19.9318 78.524 0.522
19.9390 77.142 0.518
19.9461 75.066 0.511
19.9532 71.462 0.498
19.9604 67.396 0.484
19.9675 62.521 0.466
19.9747 57.316 0.446
19.9818 53.313 0.430
19.9890 48.708 0.411
19.9961 46.358 0.401
20.0033 43.924 0.391
20.0104 42.854 0.386
20.0176 42.056 0.382
20.0247 42.427 0.384
20.0318 42.295 0.383
20.0390 42.611 0.385
20.0461 42.747 0.385
20.0533 41.892 0.381
20.0604 40.799 0.376
20.0676 39.427 0.370
20.0747 36.632 0.357
20.0819 33.569 0.341
20.0890 30.535 0.326
20.0962 27.260 0.308
20.1033 24.267 0.290
20.1104 22.097 0.277
20.1176 19.573 0.261
20.1247 18.719 0.255
20.1319 16.601 0.240
20.1390 16.410 0.239
20.1462 15.493 0.232
20.1533 14.462 0.224
20.1605 13.958 0.220
20.1676 13.306 0.215
20.1747 13.160 0.214
20.1819 12.865 0.211
20.1890 12.649 0.210
20.1962 12.226 0.206
20.2033 12.267 0.206
20.2105 12.316 0.207
20.2176 11.681 0.201
20.2248 11.986 0.204
20.2319 12.375 0.207
20.2391 11.455 0.199
20.2462 11.590 0.201
20.2533 11.569 0.200
20.2605 11.368 0.199
20.2676 11.167 0.197
20.2748 11.340 0.198
20.2819 11.191 0.197
20.2891 10.875 0.194
20.2962 11.319 0.198
20.3034 10.806 0.194
20.3105 10.958 0.195
20.3177 11.000 0.195
20.3248 10.910 0.195
20.3319 11.403 0.199
20.3391 10.976 0.195
20.3462 10.927 0.195
20.3534 11.104 0.196
20.3605 11.014 0.196
20.3677 10.924 0.195
20.3748 11.076 0.196
20.3820 10.983 0.195
20.3891 10.597 0.192
20.3962 10.747 0.193
20.4034 11.111 0.196
20.4105 10.760 0.193
20.4177 10.611 0.192
20.4248 10.417 0.190
20.4320 10.632 0.192
20.4391 10.524 0.191
20.4463 10.451 0.190
20.4534 10.490 0.191
20.4606 10.701 0.193
20.4677 10.729 0.193
20.4748 10.635 0.192
20.4820 10.438 0.190
20.4891 10.465 0.191
20.4963 10.222 0.188
20.5034 10.660 0.192
20.5106 10.392 0.190
20.5177 10.507 0.191
20.5249 10.625 0.192
20.5320 10.205 0.188
20.5392 10.014 0.186
20.5463 10.594 0.192
20.5534 10.295 0.189
20.5606 10.271 0.189
20.5677 10.479 0.191
20.5749 9.990 0.186
20.5820 10.365 0.190
20.5892 10.444 0.190
20.5963 10.438 0.190
20.6035 10.358 0.190
20.6106 10.260 0.189
20.6177 10.434 0.190
20.6249 10.285 0.189
20.6320 10.052 0.187
20.6392 10.108 0.187
20.6463 10.188 0.188
20.6535 10.271 0.189
20.6606 10.132 0.188
20.6678 10.215 0.188
20.6749 9.743 0.184
20.6821 10.215 0.188
20.6892 10.076 0.187
20.6963 10.142 0.188
20.7035 10.108 0.187
20.7106 10.111 0.187
20.7178 10.049 0.187
20.7249 10.031 0.187
20.7321 9.799 0.184
20.7392 9.872 0.185
20.7464 9.941 0.186
20.7535 10.451 0.190
20.7607 9.809 0.185
20.7678 9.785 0.184
20.7749 10.076 0.187
20.7821 9.802 0.184
20.7892 9.722 0.184
20.7964 9.819 0.185
20.8035 9.635 0.183
20.8107 10.014 0.186
20.8178 9.983 0.186
20.8250 9.705 0.184
20.8321 10.035 0.187
20.8393 9.618 0.183
20.8464 9.896 0.185
20.8535 9.628 0.183
20.8607 9.743 0.184
20.8678 9.799 0.184
20.8750 9.646 0.183
20.8821 9.795 0.184
20.8893 9.743 0.184
20.8964 9.969 0.186
20.9036 9.920 0.186
20.9107 9.788 0.184
20.9178 9.448 0.181
20.9250 9.670 0.183
20.9321 9.594 0.183
20.9393 9.653 0.183
20.9464 10.135 0.188
20.9536 9.715 0.184
20.9607 9.795 0.184
20.9679 9.427 0.181
20.9750 9.726 0.184
20.9822 9.889 0.185
20.9893 9.378 0.180
20.9964 9.722 0.184
21.0036 9.510 0.182
21.0107 9.486 0.181
21.0179 9.694 0.183
21.0250 9.736 0.184
21.0322 9.944 0.186
21.0393 9.618 0.183
21.0465 9.958 0.186
21.0536 10.049 0.187
21.0608 9.660 0.183
21.0679 10.122 0.187
21.0750 9.691 0.183
21.0822 9.917 0.186
21.0893 9.955 0.186
21.0965 10.247 0.189
21.1036 10.264 0.189
21.1108 10.104 0.187
21.1179 10.240 0.189
21.1251 10.146 0.188
21.1322 10.503 0.191
21.1393 10.622 0.192
21.1465 10.240 0.189
21.1536 10.691 0.193
21.1608 10.458 0.191
21.1679 10.604 0.192
21.1751 10.236 0.189
21.1822 10.427 0.190
21.1894 10.635 0.192
21.1965 10.868 0.194
21.2037 10.163 0.188
21.2108 10.587 0.192
21.2179 10.403 0.190
21.2251 10.701 0.193
21.2322 10.726 0.193
21.2394 10.823 0.194
21.2465 11.226 0.197
21.2537 10.927 0.195
21.2608 10.587 0.192
21.2680 10.830 0.194
21.2751 10.826 0.194
21.2823 10.618 0.192
21.2894 11.052 0.196
21.2965 10.500 0.191
21.3037 11.063 0.196
21.3108 11.142 0.197
21.3180 11.156 0.197
21.3251 11.170 0.197
21.3323 10.990 0.195
21.3394 10.979 0.195
21.3466 10.747 0.193
21.3537 11.465 0.200
21.3608 10.979 0.195
21.3680 11.024 0.196
21.3751 11.215 0.197
21.3823 10.774 0.193
21.3894 11.365 0.199
21.3966 11.486 0.200
21.4037 10.875 0.194
21.4109 10.594 0.192
21.4180 10.792 0.194
21.4252 10.653 0.192
21.4323 10.583 0.192
21.4394 10.854 0.194
21.4466 10.740 0.193
21.4537 10.962 0.195
21.4609 11.052 0.196
21.4680 10.819 0.194
21.4752 10.865 0.194
21.4823 10.986 0.195
21.4895 11.111 0.196
21.4966 10.990 0.195
21.5038 10.826 0.194
21.5109 10.983 0.195
21.5180 11.573 0.200
21.5252 11.490 0.200
21.5323 11.628 0.201
21.5395 11.448 0.199
21.5466 11.965 0.204
21.5538 11.958 0.204
21.5609 12.517 0.208
21.5681 12.615 0.209
21.5752 12.733 0.210
21.5824 12.757 0.210
21.5895 13.160 0.214
21.5966 13.785 0.219
21.6038 13.955 0.220
21.6109 14.510 0.224
21.6181 14.726 0.226
21.6252 15.330 0.231
21.6324 15.247 0.230
21.6395 15.469 0.232
21.6467 15.802 0.234
21.6538 16.337 0.238
21.6609 16.753 0.241
21.6681 17.285 0.245
21.6752 17.479 0.246
21.6824 17.587 0.247
21.6895 18.573 0.254
21.6967 18.938 0.256
21.7038 19.795 0.262
21.7110 20.497 0.267
21.7181 21.201 0.271
21.7253 21.576 0.274
21.7324 21.392 0.273
21.7395 20.844 0.269
21.7467 21.257 0.272
21.7538 19.583 0.261
21.7610 18.295 0.252
21.7681 17.736 0.248
21.7753 17.007 0.243
21.7824 16.010 0.236
21.7896 15.014 0.228
21.7967 14.844 0.227
21.8039 14.684 0.226
21.8110 14.111 0.221
21.8181 14.545 0.225
21.8253 14.545 0.225
21.8324 14.163 0.222
21.8396 14.524 0.225
21.8467 14.257 0.222
21.8539 14.427 0.224
21.8610 14.729 0.226
21.8682 14.549 0.225
21.8753 14.184 0.222
21.8824 13.521 0.217
21.8896 13.049 0.213
21.8967 12.375 0.207
21.9039 11.747 0.202
21.9110 10.931 0.195
21.9182 10.774 0.193
21.9253 10.375 0.190
21.9325 10.087 0.187
21.9396 9.861 0.185
21.9468 9.691 0.183
21.9539 9.434 0.181
21.9610 9.424 0.181
21.9682 9.066 0.177
21.9753 9.243 0.179
21.9825 8.997 0.177
21.9896 8.885 0.176
21.9968 8.993 0.177
22.0039 9.403 0.181
22.0111 8.594 0.173
22.0182 8.865 0.175
22.0254 8.983 0.177
22.0325 8.747 0.174
22.0396 8.628 0.173
22.0468 8.840 0.175
22.0539 8.639 0.173
22.0611 8.806 0.175
22.0682 9.184 0.179
22.0754 8.597 0.173
22.0825 9.024 0.177
22.0897 8.462 0.171
22.0968 8.740 0.174
22.1039 8.396 0.171
22.1111 8.712 0.174
22.1182 8.951 0.176
22.1254 8.493 0.172
22.1325 8.427 0.171
22.1397 8.302 0.170
22.1468 8.740 0.174
22.1540 8.469 0.171
22.1611 8.622 0.173
22.1683 8.826 0.175
22.1754 8.628 0.173
22.1825 8.451 0.171
22.1897 8.938 0.176
22.1968 8.483 0.172
22.2040 8.545 0.172
22.2111 8.517 0.172
22.2183 8.576 0.173
22.2254 8.295 0.170
22.2326 8.295 0.170
22.2397 8.441 0.171
22.2469 8.701 0.174
22.2540 8.434 0.171
22.2611 8.448 0.171
22.2683 8.292 0.170
22.2754 8.160 0.168
22.2826 8.382 0.171
22.2897 8.608 0.173
22.2969 8.563 0.172
22.3040 8.292 0.170
22.3112 8.264 0.169
22.3183 8.535 0.172
22.3254 8.250 0.169
22.3326 8.309 0.170
22.3397 8.406 0.171
22.3469 8.309 0.170
22.3540 8.493 0.172
22.3612 8.392 0.171
22.3683 8.226 0.169
22.3755 8.701 0.174
22.3826 8.236 0.169
22.3898 7.948 0.166
22.3969 8.250 0.169
22.4040 8.080 0.167
22.4112 8.156 0.168
22.4183 8.153 0.168
22.4255 8.462 0.171
22.4326 8.497 0.172
22.4398 8.226 0.169
22.4469 8.021 0.167
22.4541 8.451 0.171
22.4612 8.361 0.170
22.4684 8.240 0.169
22.4755 8.174 0.168
22.4826 8.049 0.167
22.4898 8.024 0.167
22.4969 8.441 0.171
22.5041 8.149 0.168
22.5112 8.135 0.168
22.5184 8.309 0.170
22.5255 8.434 0.171
22.5327 8.188 0.169
22.5398 8.073 0.167
22.5470 8.139 0.168
22.5541 8.427 0.171
22.5612 8.552 0.172
22.5684 8.111 0.168
22.5755 8.066 0.167
22.5827 7.993 0.167
22.5898 8.094 0.168
22.5970 8.184 0.169
22.6041 8.073 0.167
22.6113 8.337 0.170
22.6184 8.309 0.170
22.6255 8.274 0.169
22.6327 8.191 0.169
22.6398 8.497 0.172
22.6470 7.899 0.166
22.6541 8.174 0.168
22.6613 8.194 0.169
22.6684 8.094 0.168
22.6756 7.764 0.164
22.6827 7.858 0.165
22.6899 7.722 0.164
22.6970 8.212 0.169
22.7041 8.059 0.167
22.7113 7.878 0.165
22.7184 8.226 0.169
22.7256 7.694 0.163
22.7327 8.233 0.169
22.7399 7.632 0.163
22.7470 8.354 0.170
22.7542 8.146 0.168
22.7613 7.858 0.165
22.7685 7.712 0.164
22.7756 7.566 0.162
22.7827 7.878 0.165
22.7899 7.941 0.166
22.7970 7.806 0.165
22.8042 8.073 0.167
22.8113 7.646 0.163
22.8185 7.885 0.165
22.8256 7.764 0.164
22.8328 7.573 0.162
22.8399 7.819 0.165
22.8470 7.569 0.162
22.8542 7.809 0.165
22.8613 7.920 0.166
22.8685 7.622 0.163
22.8756 7.708 0.164
22.8828 7.788 0.164
22.8899 7.590 0.162
22.8971 7.653 0.163
22.9042 7.549 0.162
22.9114 7.500 0.161
22.9185 7.795 0.165
22.9256 7.910 0.166
22.9328 7.444 0.161
22.9399 7.649 0.163
22.9471 7.788 0.164
22.9542 7.681 0.163
22.9614 7.479 0.161
22.9685 7.465 0.161
22.9757 7.882 0.165
22.9828 7.347 0.160
22.9900 7.663 0.163
22.9971 7.622 0.163
23.0042 7.653 0.163
23.0114 7.500 0.161
23.0185 7.389 0.160
23.0257 7.858 0.165
23.0328 7.531 0.162
23.0400 7.688 0.163
23.0471 7.521 0.162
23.0543 7.396 0.160
23.0614 7.691 0.163
23.0685 7.542 0.162
23.0757 7.399 0.160
23.0828 7.719 0.164
23.0900 7.490 0.161
23.0971 7.677 0.163
23.1043 7.448 0.161
23.1114 7.444 0.161
23.1186 7.490 0.161
23.1257 7.458 0.161
23.1329 7.576 0.162
23.1400 7.483 0.161
23.1471 7.417 0.160
23.1543 7.646 0.163
23.1614 7.292 0.159
23.1686 7.639 0.163
23.1757 7.243 0.159
23.1829 7.292 0.159
23.1900 7.472 0.161
23.1972 7.469 0.161
23.2043 7.181 0.158
23.2115 7.323 0.159
23.2186 7.236 0.159
23.2257 7.240 0.159
23.2329 7.649 0.163
23.2400 7.309 0.159
23.2472 7.240 0.159
23.2543 7.458 0.161
23.2615 7.274 0.159
23.2686 7.319 0.159
23.2758 7.010 0.156
23.2829 7.142 0.157
23.2901 7.406 0.160
23.2972 7.257 0.159
23.3043 7.438 0.161
23.3115 7.292 0.159
23.3186 7.299 0.159
23.3258 6.976 0.156
23.3329 7.135 0.157
23.3401 7.083 0.157
23.3472 7.302 0.159
23.3544 7.431 0.161
23.3615 6.924 0.155
23.3686 7.219 0.158
23.3758 7.097 0.157
23.3829 6.896 0.155
23.3901 7.194 0.158
23.3972 7.490 0.161
23.4044 7.073 0.157
23.4115 7.205 0.158
23.4187 6.931 0.155
23.4258 7.219 0.158
23.4330 7.569 0.162
23.4401 6.854 0.154
23.4472 7.038 0.156
23.4544 7.240 0.159
23.4615 6.986 0.156
23.4687 6.882 0.155
23.4758 7.344 0.160
23.4830 6.826 0.154
23.4901 6.819 0.154
23.4973 6.719 0.153
23.5044 7.194 0.158
23.5116 7.149 0.158
23.5187 6.965 0.156
23.5258 7.153 0.158
23.5330 6.965 0.156
23.5401 7.028 0.156
23.5473 6.802 0.154
23.5544 7.122 0.157
23.5616 7.010 0.156
23.5687 7.205 0.158
23.5759 7.094 0.157
23.5830 6.510 0.150
23.5901 6.767 0.153
23.5973 6.799 0.154
23.6044 6.865 0.154
23.6116 6.712 0.153
23.6187 7.028 0.156
23.6259 6.882 0.155
23.6330 7.000 0.156
23.6402 6.889 0.155
23.6473 6.889 0.155
23.6545 6.931 0.155
23.6616 7.247 0.159
23.6687 6.892 0.155
23.6759 6.681 0.152
23.6830 6.906 0.155
23.6902 7.059 0.157
23.6973 6.837 0.154
23.7045 7.212 0.158
23.7116 7.212 0.158
23.7188 6.858 0.154
23.7259 6.958 0.155
23.7331 6.688 0.152
23.7402 6.976 0.156
23.7473 7.021 0.156
23.7545 6.778 0.153
23.7616 6.944 0.155
23.7688 6.885 0.155
23.7759 6.563 0.151
23.7831 7.226 0.158
23.7902 7.024 0.156
23.7974 6.764 0.153
23.8045 6.889 0.155
23.8116 6.861 0.154
23.8188 6.837 0.154
23.8259 6.951 0.155
23.8331 6.573 0.151
23.8402 6.972 0.156
23.8474 6.899 0.155
23.8545 6.500 0.150
23.8617 6.931 0.155
23.8688 6.694 0.152
23.8760 6.844 0.154
23.8831 6.819 0.154
23.8902 6.503 0.150
23.8974 6.694 0.152
23.9045 6.976 0.156
23.9117 7.309 0.159
23.9188 6.979 0.156
23.9260 6.427 0.149
23.9331 6.750 0.153
23.9403 6.885 0.155
23.9474 6.479 0.150
23.9546 6.330 0.148
23.9617 6.705 0.153
23.9688 7.028 0.156
23.9760 6.726 0.153
23.9831 6.601 0.151
23.9903 6.830 0.154
23.9974 6.632 0.152
24.0046 6.458 0.150
24.0117 6.569 0.151
24.0189 6.757 0.153
24.0260 6.733 0.153
24.0331 6.365 0.149
24.0403 6.785 0.153
24.0474 6.788 0.154
24.0546 7.031 0.156
24.0617 6.583 0.151
24.0689 6.691 0.152
24.0760 6.594 0.151
24.0832 6.844 0.154
24.0903 6.847 0.154
24.0975 6.816 0.154
24.1046 6.844 0.154
24.1117 6.826 0.154
24.1189 6.792 0.154
24.1260 6.253 0.147
24.1332 6.635 0.152
24.1403 6.747 0.153
24.1475 6.844 0.154
24.1546 6.465 0.150
24.1618 6.865 0.154
24.1689 6.861 0.154
24.1761 6.542 0.151
24.1832 7.007 0.156
24.1903 6.899 0.155
24.1975 6.819 0.154
24.2046 6.632 0.152
24.2118 6.816 0.154
24.2189 6.517 0.150
24.2261 6.580 0.151
24.2332 6.573 0.151
24.2404 6.750 0.153
24.2475 6.469 0.150
24.2547 6.604 0.151
24.2618 6.434 0.149
24.2689 6.583 0.151
24.2761 6.535 0.151
24.2832 6.917 0.155
24.2904 6.861 0.154
24.2975 6.385 0.149
24.3047 6.611 0.152
24.3118 6.549 0.151
24.3190 6.597 0.151
24.3261 6.642 0.152
24.3332 6.809 0.154
24.3404 6.729 0.153
24.3475 6.757 0.153
24.3547 6.868 0.154
24.3618 6.465 0.150
24.3690 6.632 0.152
24.3761 6.517 0.150
24.3833 6.333 0.148
24.3904 6.594 0.151
24.3976 6.576 0.151
24.4047 6.639 0.152
24.4118 6.663 0.152
24.4190 6.521 0.150
24.4261 6.938 0.155
24.4333 6.691 0.152
24.4404 6.712 0.153
24.4476 6.521 0.150
24.4547 6.479 0.150
24.4619 6.684 0.152
24.4690 6.542 0.151
24.4762 6.608 0.151
24.4833 6.667 0.152
24.4904 6.747 0.153
24.4976 6.660 0.152
24.5047 6.813 0.154
24.5119 6.712 0.153
24.5190 6.764 0.153
24.5262 6.840 0.154
24.5333 6.649 0.152
24.5405 6.920 0.155
24.5476 6.417 0.149
24.5547 6.441 0.150
24.5619 6.608 0.151
24.5690 6.642 0.152
24.5762 6.653 0.152
24.5833 6.580 0.151
24.5905 6.733 0.153
24.5976 6.396 0.149
24.6048 6.486 0.150
24.6119 6.427 0.149
24.6191 6.514 0.150
24.6262 6.576 0.151
24.6333 6.340 0.148
24.6405 6.389 0.149
24.6476 6.677 0.152
24.6548 6.531 0.151
24.6619 6.830 0.154
24.6691 6.771 0.153
24.6762 6.576 0.151
24.6834 6.712 0.153
24.6905 6.278 0.148
24.6977 6.455 0.150
24.7048 6.490 0.150
24.7119 6.795 0.154
24.7191 6.524 0.151
24.7262 6.726 0.153
24.7334 6.611 0.152
24.7405 6.406 0.149
24.7477 6.681 0.152
24.7548 6.799 0.154
24.7620 6.524 0.151
24.7691 6.778 0.153
24.7762 6.514 0.150
24.7834 6.201 0.147
24.7905 6.757 0.153
24.7977 6.649 0.152
24.8048 6.344 0.148
24.8120 6.844 0.154
24.8191 6.465 0.150
24.8263 6.580 0.151
24.8334 6.549 0.151
24.8406 6.378 0.149
24.8477 6.372 0.149
24.8548 6.469 0.150
24.8620 6.413 0.149
24.8691 6.705 0.153
24.8763 6.674 0.152
24.8834 6.472 0.150
24.8906 6.528 0.151
24.8977 6.594 0.151
24.9049 6.587 0.151
24.9120 6.368 0.149
24.9192 6.552 0.151
24.9263 6.677 0.152
24.9334 6.688 0.152
24.9406 6.313 0.148
24.9477 6.469 0.150
24.9549 6.295 0.148
24.9620 6.854 0.154
24.9692 6.556 0.151
24.9763 6.472 0.150
24.9835 6.392 0.149
24.9906 6.462 0.150
24.9978 6.694 0.152
25.0049 6.524 0.151
25.0120 6.531 0.151
25.0192 6.420 0.149
25.0263 6.722 0.153
25.0335 6.306 0.148
25.0406 6.347 0.148
25.0478 6.538 0.151
25.0549 6.705 0.153
25.0621 6.420 0.149
25.0692 6.351 0.148
25.0763 6.819 0.154
25.0835 6.597 0.151
25.0906 6.399 0.149
25.0978 6.778 0.153
25.1049 6.212 0.147
25.1121 6.712 0.153
25.1192 6.642 0.152
25.1264 6.813 0.154
25.1335 6.524 0.151
25.1407 6.729 0.153
25.1478 6.684 0.152
25.1549 6.684 0.152
25.1621 6.903 0.155
25.1692 6.528 0.151
25.1764 6.573 0.151
25.1835 6.781 0.153
25.1907 6.802 0.154
25.1978 6.688 0.152
25.2050 6.792 0.154
25.2121 6.431 0.149
25.2193 6.819 0.154
25.2264 6.694 0.152
25.2335 7.236 0.159
25.2407 7.021 0.156
25.2478 6.868 0.154
25.2550 7.076 0.157
25.2621 7.069 0.157
25.2693 7.292 0.159
25.2764 7.167 0.158
25.2836 7.191 0.158
25.2907 6.972 0.156
25.2978 7.611 0.163
25.3050 7.337 0.160
25.3121 7.524 0.162
25.3193 7.625 0.163
25.3264 7.563 0.162
25.3336 7.552 0.162
25.3407 7.583 0.162
25.3479 8.000 0.167
25.3550 7.542 0.162
25.3622 7.698 0.163
25.3693 8.201 0.169
25.3764 7.788 0.164
25.3836 7.931 0.166
25.3907 8.094 0.168
25.3979 8.215 0.169
25.4050 7.882 0.165
25.4122 8.097 0.168
25.4193 8.243 0.169
25.4265 7.826 0.165
25.4336 8.316 0.170
25.4408 8.365 0.170
25.4479 8.427 0.171
25.4550 8.500 0.172
25.4622 8.340 0.170
25.4693 8.438 0.171
25.4765 8.483 0.172
25.4836 8.587 0.173
25.4908 8.535 0.172
25.4979 8.441 0.171
25.5051 8.316 0.170
25.5122 8.566 0.172
25.5193 8.507 0.172
25.5265 8.306 0.170
25.5336 8.646 0.173
25.5408 8.747 0.174
25.5479 8.497 0.172
25.5551 8.830 0.175
25.5622 8.635 0.173
25.5694 8.490 0.172
25.5765 8.781 0.175
25.5837 8.510 0.172
25.5908 8.531 0.172
25.5979 8.688 0.174
25.6051 9.219 0.179
25.6122 8.955 0.176
25.6194 8.399 0.171
25.6265 8.528 0.172
25.6337 8.792 0.175
25.6408 8.740 0.174
25.6480 8.465 0.171
25.6551 8.753 0.174
25.6623 8.958 0.176
25.6694 8.833 0.175
25.6765 9.122 0.178
25.6837 9.087 0.178
25.6908 9.069 0.177
25.6980 9.361 0.180
25.7051 9.701 0.184
25.7123 9.118 0.178
25.7194 10.128 0.188
25.7266 9.656 0.183
25.7337 10.403 0.190
25.7408 9.802 0.184
25.7480 10.559 0.191
25.7551 10.851 0.194
25.7623 11.274 0.198
25.7694 11.302 0.198
25.7766 11.760 0.202
25.7837 11.545 0.200
25.7909 12.326 0.207
25.7980 12.420 0.208
25.8052 13.087 0.213
25.8123 13.465 0.216
25.8194 14.243 0.222
25.8266 14.299 0.223
25.8337 15.347 0.231
25.8409 15.247 0.230
25.8480 15.944 0.235
25.8552 16.177 0.237
25.8623 16.285 0.238
25.8695 16.219 0.237
25.8766 17.073 0.243
25.8838 17.160 0.244
25.8909 17.167 0.244
25.8980 17.660 0.248
25.9052 17.993 0.250
25.9123 18.403 0.253
25.9195 18.587 0.254
25.9266 19.201 0.258
25.9338 19.563 0.261
25.9409 19.778 0.262
25.9481 19.663 0.261
25.9552 19.385 0.259
25.9624 19.410 0.260
25.9695 18.500 0.253
25.9766 18.483 0.253
25.9838 17.587 0.247
25.9909 16.521 0.240
25.9981 16.493 0.239
26.0052 15.316 0.231
26.0124 15.271 0.230
26.0195 14.569 0.225
26.0267 13.990 0.220
26.0338 13.444 0.216
26.0409 13.403 0.216
26.0481 13.399 0.216
26.0552 13.250 0.214
26.0624 13.285 0.215
26.0695 12.903 0.212
26.0767 13.302 0.215
26.0838 13.663 0.218
26.0910 13.712 0.218
26.0981 13.198 0.214
26.1053 13.122 0.213
26.1124 12.726 0.210
26.1195 12.743 0.210
26.1267 12.556 0.209
26.1338 11.965 0.204
26.1410 11.639 0.201
26.1481 11.125 0.197
26.1553 10.816 0.194
26.1624 10.295 0.189
26.1696 9.799 0.184
26.1767 9.691 0.183
26.1839 9.201 0.179
26.1910 9.031 0.177
26.1981 8.931 0.176
26.2053 8.618 0.173
26.2124 8.358 0.170
26.2196 8.219 0.169
26.2267 8.427 0.171
26.2339 8.177 0.169
26.2410 8.472 0.172
26.2482 8.375 0.171
26.2553 8.431 0.171
26.2624 8.115 0.168
26.2696 8.361 0.170
26.2767 8.240 0.169
26.2839 7.927 0.166
26.2910 8.146 0.168
26.2982 8.545 0.172
26.3053 8.285 0.170
26.3125 8.503 0.172
26.3196 8.191 0.169
26.3268 8.347 0.170
26.3339 8.597 0.173
26.3410 8.944 0.176
26.3482 8.535 0.172
26.3553 8.431 0.171
26.3625 8.715 0.174
26.3696 8.771 0.175
26.3768 8.823 0.175
26.3839 8.965 0.176
26.3911 8.851 0.175
26.3982 9.615 0.183
26.4054 9.313 0.180
26.4125 9.427 0.181
26.4196 9.434 0.181
26.4268 9.799 0.184
26.4339 10.066 0.187
26.4411 9.719 0.184
26.4482 9.747 0.184
26.4554 10.111 0.187
26.4625 10.243 0.189
26.4697 10.160 0.188
26.4768 10.417 0.190
26.4839 10.389 0.190
26.4911 10.927 0.195
26.4982 11.083 0.196
26.5054 11.243 0.198
26.5125 11.799 0.202
26.5197 11.194 0.197
26.5268 11.167 0.197
26.5340 11.701 0.202
26.5411 11.740 0.202
26.5483 11.986 0.204
26.5554 12.101 0.205
26.5625 12.972 0.212
26.5697 12.875 0.211
26.5768 13.010 0.213
26.5840 12.941 0.212
26.5911 12.882 0.211
26.5983 13.222 0.214
26.6054 13.354 0.215
26.6126 13.375 0.216
26.6197 13.854 0.219
26.6269 13.476 0.216
26.6340 14.007 0.221
26.6411 14.080 0.221
26.6483 14.538 0.225
26.6554 15.299 0.230
26.6626 15.128 0.229
26.6697 15.507 0.232
26.6769 14.847 0.227
26.6840 15.670 0.233
26.6912 15.674 0.233
26.6983 16.236 0.237
26.7055 15.785 0.234
26.7126 16.878 0.242
26.7197 16.705 0.241
26.7269 17.128 0.244
26.7340 16.865 0.242
26.7412 17.576 0.247
26.7483 17.698 0.248
26.7555 17.840 0.249
26.7626 18.014 0.250
26.7698 18.080 0.251
26.7769 18.552 0.254
26.7840 18.281 0.252
26.7912 18.361 0.252
26.7983 18.604 0.254
26.8055 19.215 0.258
26.8126 19.913 0.263
26.8198 19.403 0.260
26.8269 19.813 0.262
26.8341 20.146 0.264
26.8412 20.615 0.268
26.8484 20.441 0.266
26.8555 20.722 0.268
26.8626 21.420 0.273
26.8698 20.799 0.269
26.8769 21.417 0.273
26.8841 21.056 0.270
26.8912 21.319 0.272
26.8984 21.462 0.273
26.9055 21.382 0.272
26.9127 22.351 0.279
26.9198 22.976 0.282
26.9270 22.257 0.278
26.9341 22.549 0.280
26.9412 23.049 0.283
26.9484 22.934 0.282
26.9555 23.302 0.284
26.9627 23.292 0.284
26.9698 23.128 0.283
26.9770 23.920 0.288
26.9841 23.733 0.287
26.9913 23.260 0.284
26.9984 24.128 0.289
27.0055 23.896 0.288
27.0127 23.663 0.287
27.0198 24.795 0.293
27.0270 24.274 0.290
27.0341 24.899 0.294
27.0413 24.365 0.291
27.0484 24.250 0.290
27.0556 24.410 0.291
27.0627 24.524 0.292
27.0699 25.392 0.297
27.0770 25.017 0.295
27.0841 24.191 0.290
27.0913 24.997 0.295
27.0984 24.274 0.290
27.1056 24.191 0.290
27.1127 24.722 0.293
27.1199 24.618 0.292
27.1270 24.771 0.293
27.1342 25.208 0.296
27.1413 24.601 0.292
27.1485 24.458 0.291
27.1556 24.649 0.293
27.1627 25.017 0.295
27.1699 25.545 0.298
27.1770 24.910 0.294
27.1842 24.330 0.291
27.1913 24.722 0.293
27.1985 24.493 0.292
27.2056 24.733 0.293
27.2128 24.135 0.289
27.2199 23.889 0.288
27.2270 23.993 0.289
27.2342 23.806 0.288
27.2413 24.007 0.289
27.2485 23.861 0.288
27.2556 23.361 0.285
27.2628 23.465 0.285
27.2699 22.955 0.282
27.2771 22.778 0.281
27.2842 22.448 0.279
27.2914 22.833 0.282
27.2985 22.069 0.277
27.3056 22.396 0.279
27.3128 22.076 0.277
27.3199 22.146 0.277
27.3271 21.976 0.276
27.3342 21.753 0.275
27.3414 21.563 0.274
27.3485 21.250 0.272
27.3557 21.358 0.272
27.3628 21.281 0.272
27.3700 20.708 0.268
27.3771 20.729 0.268
27.3842 20.462 0.267
27.3914 20.493 0.267
27.3985 20.455 0.267
27.4057 20.003 0.264
27.4128 19.549 0.261
27.4200 19.260 0.259
27.4271 19.240 0.258
27.4343 18.788 0.255
27.4414 18.757 0.255
27.4485 18.858 0.256
27.4557 18.750 0.255
27.4628 18.559 0.254
27.4700 18.115 0.251
27.4771 17.139 0.244
27.4843 17.021 0.243
27.4914 17.316 0.245
27.4986 16.990 0.243
27.5057 16.847 0.242
27.5129 16.660 0.241
27.5200 16.278 0.238
27.5271 16.517 0.239
27.5343 15.597 0.233
27.5414 15.715 0.234
27.5486 16.049 0.236
27.5557 15.486 0.232
27.5629 15.212 0.230
27.5700 14.507 0.224
27.5772 14.740 0.226
27.5843 14.226 0.222
27.5915 14.281 0.223
27.5986 14.267 0.223
27.6057 14.219 0.222
27.6129 13.653 0.218
27.6200 13.542 0.217
27.6272 13.274 0.215
27.6343 13.604 0.217
27.6415 13.257 0.215
27.6486 13.316 0.215
27.6558 13.427 0.216
27.6629 13.344 0.215
27.6701 13.184 0.214
27.6772 12.639 0.209
27.6843 12.802 0.211
27.6915 12.674 0.210
27.6986 12.660 0.210
27.7058 12.663 0.210
27.7129 12.858 0.211
27.7201 12.854 0.211
27.7272 12.573 0.209
27.7344 12.170 0.206
27.7415 12.410 0.208
27.7486 12.389 0.207
27.7558 12.003 0.204
27.7629 11.691 0.201
27.7701 11.688 0.201
27.7772 12.087 0.205
27.7844 11.851 0.203
27.7915 11.705 0.202
27.7987 11.861 0.203
27.8058 11.646 0.201
27.8130 11.972 0.204
27.8201 11.778 0.202
27.8272 12.031 0.204
27.8344 12.090 0.205
27.8415 11.826 0.203
27.8487 11.861 0.203
27.8558 12.361 0.207
27.8630 12.229 0.206
27.8701 12.701 0.210
27.8773 12.733 0.210
27.8844 12.573 0.209
27.8916 12.625 0.209
27.8987 12.979 0.212
27.9058 12.712 0.210
27.9130 13.111 0.213
27.9201 12.948 0.212
27.9273 12.521 0.209
27.9344 12.778 0.211
27.9416 12.632 0.209
27.9487 12.760 0.210
27.9559 12.521 0.209
27.9630 12.688 0.210
27.9701 12.774 0.211
27.9773 12.726 0.210
27.9844 12.288 0.207
27.9916 12.549 0.209
27.9987 12.722 0.210
28.0059 13.014 0.213
28.0130 13.233 0.214
28.0202 12.965 0.212
28.0273 12.913 0.212
28.0345 13.042 0.213
28.0416 13.035 0.213
28.0487 13.410 0.216
28.0559 13.955 0.220
28.0630 13.507 0.217
28.0702 13.743 0.218
28.0773 14.451 0.224
28.0845 14.257 0.222
28.0916 14.337 0.223
28.0988 14.955 0.228
28.1059 15.319 0.231
28.1131 15.372 0.231
28.1202 15.694 0.233
28.1273 16.306 0.238
28.1345 16.938 0.243
28.1416 17.174 0.244
28.1488 18.108 0.251
28.1559 17.948 0.250
28.1631 18.479 0.253
28.1702 18.580 0.254
28.1774 19.625 0.261
28.1845 20.260 0.265
28.1916 20.705 0.268
28.1988 21.344 0.272
28.2059 22.128 0.277
28.2131 22.830 0.282
28.2202 22.944 0.282
28.2274 23.660 0.287
28.2345 24.615 0.292
28.2417 25.243 0.296
28.2488 26.490 0.303
28.2560 26.753 0.305
28.2631 27.958 0.312
28.2702 28.479 0.314
28.2774 29.222 0.319
28.2845 29.278 0.319
28.2917 30.132 0.323
28.2988 29.646 0.321
28.3060 29.441 0.320
28.3131 29.177 0.318
28.3203 28.153 0.313
28.3274 27.358 0.308
28.3346 26.771 0.305
28.3417 26.729 0.305
28.3488 26.149 0.301
28.3560 26.469 0.303
28.3631 26.656 0.304
28.3703 26.795 0.305
28.3774 26.903 0.306
28.3846 27.479 0.309
28.3917 27.431 0.309
28.3989 27.885 0.311
28.4060 28.705 0.316
28.4132 29.198 0.318
28.4203 29.264 0.319
28.4274 31.122 0.329
28.4346 31.535 0.331
28.4417 32.736 0.337
28.4489 33.125 0.339
28.4560 34.260 0.345
28.4632 34.194 0.345
28.4703 34.149 0.344
28.4775 33.375 0.340
28.4846 31.924 0.333
28.4917 29.625 0.321
28.4989 28.382 0.314
28.5060 26.260 0.302
28.5132 25.087 0.295
28.5203 22.451 0.279
28.5275 21.017 0.270
28.5346 19.837 0.262
28.5418 18.941 0.256
28.5489 17.823 0.249
28.5561 17.146 0.244
28.5632 16.278 0.238
28.5703 15.701 0.233
28.5775 16.038 0.236
28.5846 15.597 0.233
28.5918 15.458 0.232
28.5989 15.736 0.234
28.6061 16.108 0.236
28.6132 15.944 0.235
28.6204 16.024 0.236
28.6275 16.694 0.241
28.6347 16.566 0.240
28.6418 16.615 0.240
28.6489 16.330 0.238
28.6561 15.719 0.234
28.6632 15.132 0.229
28.6704 14.660 0.226
28.6775 13.510 0.217
28.6847 12.556 0.209
28.6918 11.913 0.203
28.6990 11.646 0.201
28.7061 10.885 0.194
28.7132 10.514 0.191
28.7204 9.503 0.182
28.7275 9.153 0.178
28.7347 8.865 0.175
28.7418 8.358 0.170
28.7490 8.569 0.172
28.7561 8.031 0.167
28.7633 7.868 0.165
28.7704 7.972 0.166
28.7776 7.997 0.167
28.7847 7.705 0.164
28.7918 7.941 0.166
28.7990 7.816 0.165
28.8061 7.559 0.162
28.8133 7.924 0.166
28.8204 7.372 0.160
28.8276 7.455 0.161
28.8347 7.486 0.161
28.8419 7.323 0.159
28.8490 7.823 0.165
28.8562 7.688 0.163
28.8633 7.635 0.163
28.8704 7.205 0.158
28.8776 7.573 0.162
28.8847 7.583 0.162
28.8919 7.604 0.162
28.8990 7.729 0.164
28.9062 7.069 0.157
28.9133 7.552 0.162
28.9205 7.240 0.159
28.9276 7.719 0.164
28.9347 7.753 0.164
28.9419 7.347 0.160
28.9490 7.667 0.163
28.9562 7.514 0.162
28.9633 7.424 0.161
28.9705 7.191 0.158
28.9776 7.517 0.162
28.9848 7.319 0.159
28.9919 7.410 0.160
28.9991 7.462 0.161
29.0062 7.111 0.157
29.0133 7.368 0.160
29.0205 7.278 0.159
29.0276 7.535 0.162
29.0348 7.222 0.158
29.0419 7.531 0.162
29.0491 7.194 0.158
29.0562 7.146 0.158
29.0634 7.875 0.165
29.0705 7.625 0.163
29.0777 7.354 0.160
29.0848 7.583 0.162
29.0919 7.538 0.162
29.0991 7.576 0.162
29.1062 7.458 0.161
29.1134 7.646 0.163
29.1205 7.694 0.163
29.1277 7.483 0.161
29.1348 8.101 0.168
29.1420 7.927 0.166
29.1491 7.865 0.165
29.1562 7.962 0.166
29.1634 8.167 0.168
29.1705 8.083 0.168
29.1777 8.517 0.172
29.1848 8.153 0.168
29.1920 7.993 0.167
29.1991 8.538 0.172
29.2063 8.406 0.171
29.2134 8.556 0.172
29.2206 8.660 0.173
29.2277 8.493 0.172
29.2348 8.514 0.172
29.2420 8.729 0.174
29.2491 8.604 0.173
29.2563 8.500 0.172
29.2634 8.483 0.172
29.2706 8.549 0.172
29.2777 8.378 0.171
29.2849 8.660 0.173
29.2920 8.406 0.171
29.2992 8.646 0.173
29.3063 8.385 0.171
29.3134 8.274 0.169
29.3206 8.469 0.171
29.3277 8.538 0.172
29.3349 8.764 0.174
29.3420 8.549 0.172
29.3492 8.427 0.171
29.3563 8.701 0.174
29.3635 8.951 0.176
29.3706 9.024 0.177
29.3778 8.969 0.176
29.3849 8.920 0.176
29.3920 9.264 0.179
29.3992 9.076 0.178
29.4063 9.233 0.179
29.4135 8.906 0.176
29.4206 9.281 0.180
29.4278 9.229 0.179
29.4349 8.979 0.177
29.4421 9.326 0.180
29.4492 9.368 0.180
29.4563 9.208 0.179
29.4635 8.958 0.176
29.4706 9.021 0.177
29.4778 8.878 0.176
29.4849 9.236 0.179
29.4921 9.038 0.177
29.4992 8.962 0.176
29.5064 9.177 0.179
29.5135 9.024 0.177
29.5207 9.194 0.179
29.5278 9.448 0.181
29.5349 9.333 0.180
29.5421 9.507 0.182
29.5492 9.399 0.181
29.5564 9.715 0.184
29.5635 9.594 0.183
29.5707 9.906 0.185
29.5778 10.184 0.188
29.5850 10.066 0.187
29.5921 10.392 0.190
29.5993 10.191 0.188
29.6064 10.764 0.193
29.6135 10.910 0.195
29.6207 11.194 0.197
29.6278 11.878 0.203
29.6350 11.990 0.204
29.6421 12.139 0.205
29.6493 12.479 0.208
29.6564 13.597 0.217
29.6636 13.174 0.214
29.6707 14.257 0.222
29.6778 14.493 0.224
29.6850 14.823 0.227
29.6921 15.080 0.229
29.6993 15.233 0.230
29.7064 15.146 0.229
29.7136 15.715 0.234
29.7207 16.007 0.236
29.7279 16.865 0.242
29.7350 17.177 0.244
29.7422 17.771 0.248
29.7493 18.465 0.253
29.7564 18.319 0.252
29.7636 18.361 0.252
29.7707 19.521 0.260
29.7779 19.604 0.261
29.7850 19.670 0.261
29.7922 19.000 0.257
29.7993 19.267 0.259
29.8065 18.503 0.253
29.8136 18.017 0.250
29.8208 16.576 0.240
29.8279 16.021 0.236
29.8350 15.479 0.232
29.8422 15.319 0.231
29.8493 13.875 0.219
29.8565 13.431 0.216
29.8636 13.771 0.219
29.8708 13.142 0.214
29.8779 12.757 0.210
29.8851 12.972 0.212
29.8922 12.688 0.210
29.8993 12.566 0.209
29.9065 12.684 0.210
29.9136 12.278 0.206
29.9208 12.431 0.208
29.9279 13.059 0.213
29.9351 12.663 0.210
29.9422 12.785 0.211
29.9494 13.087 0.213
29.9565 12.885 0.212
29.9637 12.719 0.210
29.9708 12.913 0.212
29.9779 12.868 0.211
29.9851 12.094 0.205
29.9922 12.028 0.204
29.9994 11.660 0.201
30.0065 11.014 0.196
30.0137 10.569 0.192
30.0208 10.240 0.189
30.0280 9.167 0.178
30.0351 9.260 0.179
30.0423 9.021 0.177
30.0494 8.260 0.169
30.0565 8.181 0.169
30.0637 7.889 0.166
30.0708 7.865 0.165
30.0780 7.559 0.162
30.0851 7.913 0.166
30.0923 7.608 0.163
30.0994 7.434 0.161
30.1066 7.368 0.160
30.1137 7.094 0.157
30.1209 7.292 0.159
30.1280 7.372 0.160
30.1351 7.278 0.159
30.1423 7.014 0.156
30.1494 6.962 0.155
30.1566 7.083 0.157
30.1637 7.083 0.157
30.1709 7.115 0.157
30.1780 7.142 0.157
30.1852 6.965 0.156
30.1923 6.795 0.154
30.1994 7.233 0.158
30.2066 7.313 0.159
30.2137 7.035 0.156
30.2209 7.083 0.157
30.2280 6.587 0.151
30.2352 6.896 0.155
30.2423 6.927 0.155
30.2495 6.813 0.154
30.2566 6.708 0.153
30.2638 6.858 0.154
30.2709 6.625 0.152
30.2780 6.806 0.154
30.2852 6.785 0.153
30.2923 7.017 0.156
30.2995 7.010 0.156
30.3066 6.674 0.152
30.3138 6.958 0.155
30.3209 6.764 0.153
30.3281 6.910 0.155
30.3352 6.653 0.152
30.3424 6.788 0.154
30.3495 6.948 0.155
30.3566 7.028 0.156
30.3638 6.722 0.153
30.3709 6.587 0.151
30.3781 6.694 0.152
30.3852 7.142 0.157
30.3924 6.785 0.153
30.3995 6.649 0.152
30.4067 6.983 0.156
30.4138 7.087 0.157
30.4209 6.705 0.153
30.4281 6.833 0.154
30.4352 6.760 0.153
30.4424 6.618 0.152
30.4495 6.944 0.155
30.4567 6.944 0.155
30.4638 7.017 0.156
30.4710 6.851 0.154
30.4781 7.087 0.157
30.4853 6.906 0.155
30.4924 7.167 0.158
30.4995 6.872 0.154
30.5067 6.941 0.155
30.5138 6.858 0.154
30.5210 6.993 0.156
30.5281 6.979 0.156
30.5353 6.785 0.153
30.5424 6.979 0.156
30.5496 7.205 0.158
30.5567 6.771 0.153
30.5639 7.003 0.156
30.5710 7.149 0.158
30.5781 7.260 0.159
30.5853 7.063 0.157
30.5924 6.837 0.154
30.5996 7.052 0.156
30.6067 7.510 0.161
30.6139 6.865 0.154
30.6210 7.319 0.159
30.6282 7.427 0.161
30.6353 7.194 0.158
30.6424 7.486 0.161
30.6496 7.299 0.159
30.6567 7.330 0.160
30.6639 7.573 0.162
30.6710 7.094 0.157
30.6782 7.222 0.158
30.6853 7.330 0.160
30.6925 7.483 0.161
30.6996 7.566 0.162
30.7068 7.111 0.157
30.7139 7.264 0.159
30.7210 7.639 0.163
30.7282 7.656 0.163
30.7353 7.931 0.166
30.7425 7.747 0.164
30.7496 7.760 0.164
30.7568 7.715 0.164
30.7639 7.892 0.166
30.7711 7.875 0.165
30.7782 7.920 0.166
30.7854 7.993 0.167
30.7925 7.865 0.165
30.7996 7.774 0.164
30.8068 8.181 0.169
30.8139 8.156 0.168
30.8211 8.306 0.170
30.8282 8.385 0.171
30.8354 8.469 0.171
30.8425 8.406 0.171
30.8497 8.299 0.170
30.8568 8.479 0.172
30.8639 8.497 0.172
30.8711 8.427 0.171
30.8782 8.434 0.171
30.8854 8.615 0.173
30.8925 8.837 0.175
30.8997 8.483 0.172
30.9068 8.583 0.173
30.9140 8.785 0.175
30.9211 8.917 0.176
30.9283 8.920 0.176
30.9354 9.215 0.179
30.9425 8.986 0.177
30.9497 9.045 0.177
30.9568 9.309 0.180
30.9640 9.083 0.178
30.9711 9.323 0.180
30.9783 9.403 0.181
30.9854 9.257 0.179
30.9926 9.205 0.179
30.9997 9.469 0.181
31.0069 9.472 0.181
31.0140 9.306 0.180
31.0211 9.736 0.184
31.0283 9.729 0.184
31.0354 9.597 0.183
31.0426 9.778 0.184
31.0497 9.847 0.185
31.0569 9.507 0.182
31.0640 9.774 0.184
31.0712 9.819 0.185
31.0783 10.007 0.186
31.0855 10.104 0.187
31.0926 10.240 0.189
31.0997 10.177 0.188
31.1069 10.365 0.190
31.1140 10.490 0.191
31.1212 10.483 0.191
31.1283 10.858 0.194
31.1355 10.924 0.195
31.1426 10.861 0.194
31.1498 10.753 0.193
31.1569 10.719 0.193
31.1640 10.483 0.191
31.1712 10.427 0.190
31.1783 10.875 0.194
31.1855 10.712 0.193
31.1926 11.094 0.196
31.1998 10.903 0.195
31.2069 10.885 0.194
31.2141 10.649 0.192
31.2212 11.049 0.196
31.2284 11.076 0.196
31.2355 11.146 0.197
31.2426 10.986 0.195
31.2498 10.858 0.194
31.2569 11.122 0.197
31.2641 10.788 0.194
31.2712 10.844 0.194
31.2784 10.983 0.195
31.2855 10.858 0.194
31.2927 11.132 0.197
31.2998 11.156 0.197
31.3070 10.997 0.195
31.3141 11.101 0.196
31.3212 11.059 0.196
31.3284 10.903 0.195
31.3355 11.170 0.197
31.3427 11.080 0.196
31.3498 11.087 0.196
31.3570 10.701 0.193
31.3641 11.212 0.197
31.3713 11.333 0.198
31.3784 11.313 0.198
31.3855 10.750 0.193
31.3927 11.188 0.197
31.3998 11.222 0.197
31.4070 10.816 0.194
31.4141 10.858 0.194
31.4213 10.910 0.195
31.4284 10.816 0.194
31.4356 10.736 0.193
31.4427 10.854 0.194
31.4499 10.837 0.194
31.4570 10.833 0.194
31.4641 10.493 0.191
31.4713 10.997 0.195
31.4784 10.253 0.189
31.4856 10.385 0.190
31.4927 10.271 0.189
31.4999 10.406 0.190
31.5070 10.594 0.192
31.5142 10.250 0.189
31.5213 10.781 0.193
31.5285 10.361 0.190
31.5356 10.177 0.188
31.5427 10.188 0.188
31.5499 10.490 0.191
31.5570 9.660 0.183
31.5642 9.976 0.186
31.5713 9.837 0.185
31.5785 9.670 0.183
31.5856 9.299 0.180
31.5928 9.632 0.183
31.5999 9.972 0.186
31.6070 9.656 0.183
31.6142 9.667 0.183
31.6213 9.326 0.180
31.6285 9.278 0.179
31.6356 9.007 0.177
31.6428 9.097 0.178
31.6499 8.878 0.176
31.6571 9.003 0.177
31.6642 8.983 0.177
31.6714 9.160 0.178
31.6785 8.837 0.175
31.6856 8.663 0.173
31.6928 8.566 0.172
31.6999 8.924 0.176
31.7071 8.528 0.172
31.7142 8.264 0.169
31.7214 8.788 0.175
31.7285 8.538 0.172
31.7357 7.969 0.166
31.7428 8.028 0.167
31.7500 7.851 0.165
31.7571 7.997 0.167
31.7642 8.076 0.167
31.7714 7.948 0.166
31.7785 8.149 0.168
31.7857 7.635 0.163
31.7928 7.639 0.163
31.8000 7.552 0.162
31.8071 7.778 0.164
31.8143 7.424 0.161
31.8214 7.559 0.162
31.8286 7.118 0.157
31.8357 7.243 0.159
31.8428 7.486 0.161
31.8500 7.319 0.159
31.8571 7.260 0.159
31.8643 7.392 0.160
31.8714 7.024 0.156
31.8786 7.101 0.157
31.8857 6.823 0.154
31.8929 7.063 0.157
31.9000 6.899 0.155
31.9071 6.510 0.150
31.9143 7.021 0.156
31.9214 6.892 0.155
31.9286 6.753 0.153
31.9357 6.701 0.153
31.9429 6.906 0.155
31.9500 6.469 0.150
31.9572 6.691 0.152
31.9643 6.413 0.149
31.9715 6.326 0.148
31.9786 6.444 0.150
31.9857 6.399 0.149
31.9929 6.444 0.150
32.0000 6.392 0.149
32.0072 6.274 0.148
32.0143 6.188 0.147
32.0215 6.444 0.150
32.0286 6.170 0.146
32.0358 6.233 0.147
32.0429 6.167 0.146
32.0501 5.969 0.144
32.0572 6.201 0.147
32.0643 6.347 0.148
32.0715 6.271 0.148
32.0786 5.965 0.144
32.0858 6.295 0.148
32.0929 5.858 0.143
32.1001 6.309 0.148
32.1072 6.031 0.145
32.1144 5.924 0.143
32.1215 5.844 0.142
32.1286 6.021 0.145
32.1358 5.972 0.144
32.1429 6.083 0.145
32.1501 6.205 0.147
32.1572 5.969 0.144
32.1644 5.823 0.142
32.1715 6.118 0.146
32.1787 6.299 0.148
32.1858 6.118 0.146
32.1930 6.181 0.146
32.2001 6.031 0.145
32.2072 6.128 0.146
32.2144 5.910 0.143
32.2215 6.229 0.147
32.2287 5.944 0.144
32.2358 5.986 0.144
32.2430 5.920 0.143
32.2501 6.205 0.147
32.2573 5.819 0.142
32.2644 6.056 0.145
32.2716 5.892 0.143
32.2787 5.934 0.144
32.2858 6.361 0.149
32.2930 5.951 0.144
32.3001 6.045 0.145
32.3073 5.906 0.143
32.3144 6.028 0.145
32.3216 5.958 0.144
32.3287 6.087 0.145
32.3359 5.938 0.144
32.3430 6.306 0.148
32.3501 5.882 0.143
32.3573 5.965 0.144
32.3644 6.042 0.145
32.3716 5.944 0.144
32.3787 6.208 0.147
32.3859 6.038 0.145
32.3930 6.149 0.146
32.4002 6.038 0.145
32.4073 6.080 0.145
32.4145 5.976 0.144
32.4216 6.267 0.148
32.4287 6.156 0.146
32.4359 5.816 0.142
32.4430 6.160 0.146
32.4502 6.104 0.146
32.4573 6.014 0.145
32.4645 5.962 0.144
32.4716 6.191 0.147
32.4788 6.587 0.151
32.4859 6.330 0.148
32.4931 6.167 0.146
32.5002 6.240 0.147
32.5073 6.490 0.150
32.5145 6.063 0.145
32.5216 6.392 0.149
32.5288 6.549 0.151
32.5359 6.378 0.149
32.5431 6.333 0.148
32.5502 6.479 0.150
32.5574 6.507 0.150
32.5645 6.417 0.149
32.5716 6.354 0.149
32.5788 6.670 0.152
32.5859 6.441 0.150
32.5931 6.417 0.149
32.6002 6.313 0.148
32.6074 6.444 0.150
32.6145 6.535 0.151
32.6217 6.524 0.151
32.6288 6.490 0.150
32.6360 6.497 0.150
32.6431 6.719 0.153
32.6502 6.625 0.152
32.6574 6.632 0.152
32.6645 6.552 0.151
32.6717 6.927 0.155
32.6788 6.733 0.153
32.6860 7.059 0.157
32.6931 6.479 0.150
32.7003 6.552 0.151
32.7074 6.750 0.153
32.7146 6.733 0.153
32.7217 7.003 0.156
32.7288 7.059 0.157
32.7360 7.038 0.156
32.7431 6.771 0.153
32.7503 6.847 0.154
32.7574 6.955 0.155
32.7646 6.781 0.153
32.7717 7.115 0.157
32.7789 7.188 0.158
32.7860 7.212 0.158
32.7932 7.156 0.158
32.8003 6.823 0.154
32.8074 7.188 0.158
32.8146 6.705 0.153
32.8217 7.194 0.158
32.8289 7.031 0.156
32.8360 7.347 0.160
32.8432 7.465 0.161
32.8503 7.313 0.159
32.8575 7.382 0.160
32.8646 7.351 0.160
32.8717 7.396 0.160
32.8789 7.490 0.161
32.8860 7.670 0.163
32.8932 7.771 0.164
32.9003 7.997 0.167
32.9075 7.934 0.166
32.9146 7.913 0.166
32.9218 8.208 0.169
32.9289 7.722 0.164
32.9361 8.073 0.167
32.9432 8.059 0.167
32.9503 8.563 0.172
32.9575 7.924 0.166
32.9646 8.198 0.169
32.9718 8.559 0.172
32.9789 8.431 0.171
32.9861 8.622 0.173
32.9932 8.861 0.175
33.0004 9.035 0.177
33.0075 8.590 0.173
33.0147 9.097 0.178
33.0218 9.590 0.182
33.0289 9.392 0.181
33.0361 9.441 0.181
33.0432 9.622 0.183
33.0504 10.069 0.187
33.0575 10.417 0.190
33.0647 10.347 0.190
33.0718 10.455 0.191
33.0790 10.653 0.192
33.0861 10.399 0.190
33.0932 10.698 0.193
33.1004 10.628 0.192
33.1075 11.066 0.196
33.1147 10.997 0.195
33.1218 11.688 0.201
33.1290 11.656 0.201
33.1361 11.958 0.204
33.1433 11.649 0.201
33.1504 11.865 0.203
33.1576 11.878 0.203
33.1647 11.701 0.202
33.1718 11.563 0.200
33.1790 11.052 0.196
33.1861 11.222 0.197
33.1933 11.382 0.199
33.2004 11.257 0.198
33.2076 11.229 0.197
33.2147 10.715 0.193
33.2219 10.781 0.193
33.2290 10.767 0.193
33.2362 11.191 0.197
33.2433 10.983 0.195
33.2504 11.497 0.200
33.2576 11.215 0.197
33.2647 11.438 0.199
33.2719 11.760 0.202
33.2790 12.573 0.209
33.2862 12.472 0.208
33.2933 12.410 0.208
33.3005 12.750 0.210
33.3076 12.378 0.207
33.3147 12.733 0.210
33.3219 12.389 0.207
33.3290 12.847 0.211
33.3362 12.861 0.211
33.3433 13.205 0.214
33.3505 12.875 0.211
33.3576 12.816 0.211
33.3648 13.104 0.213
33.3719 12.934 0.212
33.3791 13.212 0.214
33.3862 12.760 0.210
33.3933 13.042 0.213
33.4005 12.913 0.212
33.4076 13.090 0.213
33.4148 13.271 0.215
33.4219 13.247 0.214
33.4291 13.424 0.216
33.4362 13.611 0.217
33.4434 13.618 0.217
33.4505 13.503 0.217
33.4577 13.535 0.217
33.4648 13.344 0.215
33.4719 13.236 0.214
33.4791 13.118 0.213
33.4862 12.507 0.208
33.4934 12.476 0.208
33.5005 12.271 0.206
33.5077 12.385 0.207
33.5148 11.809 0.202
33.5220 11.531 0.200
33.5291 11.472 0.200
33.5363 11.156 0.197
33.5434 10.660 0.192
33.5505 10.462 0.191
33.5577 10.108 0.187
33.5648 10.188 0.188
33.5720 9.931 0.186
33.5791 9.712 0.184
33.5863 9.580 0.182
33.5934 9.316 0.180
33.6006 9.444 0.181
33.6077 9.056 0.177
33.6148 9.038 0.177
33.6220 9.021 0.177
33.6291 9.302 0.180
33.6363 9.448 0.181
33.6434 9.194 0.179
33.6506 9.184 0.179
33.6577 8.941 0.176
33.6649 9.003 0.177
33.6720 8.660 0.173
33.6792 8.892 0.176
33.6863 8.503 0.172
33.6934 8.125 0.168
33.7006 8.108 0.168
33.7077 8.097 0.168
33.7149 8.056 0.167
33.7220 7.865 0.165
33.7292 7.760 0.164
33.7363 7.396 0.160
33.7435 7.431 0.161
33.7506 7.233 0.158
33.7578 7.250 0.159
33.7649 7.309 0.159
33.7720 6.875 0.155
33.7792 6.760 0.153
33.7863 6.674 0.152
33.7935 6.635 0.152
33.8006 6.090 0.145
33.8078 6.326 0.148
33.8149 6.076 0.145
33.8221 6.003 0.144
33.8292 6.236 0.147
33.8363 5.910 0.143
33.8435 5.983 0.144
33.8506 6.059 0.145
33.8578 5.868 0.143
33.8649 5.747 0.141
33.8721 6.003 0.144
33.8792 5.740 0.141
33.8864 5.677 0.140
33.8935 5.608 0.140
33.9007 5.625 0.140
33.9078 5.733 0.141
33.9149 5.885 0.143
33.9221 5.816 0.142
33.9292 5.465 0.138
33.9364 5.806 0.142
33.9435 5.729 0.141
33.9507 5.726 0.141
33.9578 5.705 0.141
33.9650 5.913 0.143
33.9721 5.712 0.141
33.9793 5.611 0.140
33.9864 5.826 0.142
33.9935 5.448 0.138
34.0007 5.667 0.140
34.0078 5.646 0.140
34.0150 5.681 0.140
34.0221 5.490 0.138
34.0293 5.927 0.143
34.0364 5.753 0.141
34.0436 5.844 0.142
34.0507 5.740 0.141
34.0578 5.726 0.141
34.0650 5.799 0.142
34.0721 5.705 0.141
34.0793 5.872 0.143
34.0864 5.767 0.142
34.0936 5.622 0.140
34.1007 5.642 0.140
34.1079 5.760 0.141
34.1150 5.625 0.140
34.1222 5.948 0.144
34.1293 6.031 0.145
34.1364 6.240 0.147
34.1436 5.882 0.143
34.1507 5.917 0.143
34.1579 6.111 0.146
34.1650 6.115 0.146
34.1722 5.865 0.143
34.1793 5.868 0.143
34.1865 5.840 0.142
34.1936 5.969 0.144
34.2008 6.021 0.145
34.2079 5.997 0.144
34.2150 6.038 0.145
34.2222 5.722 0.141
34.2293 6.003 0.144
34.2365 6.385 0.149
34.2436 5.802 0.142
34.2508 5.819 0.142
34.2579 5.976 0.144
34.2651 6.021 0.145
34.2722 5.868 0.143
34.2793 5.757 0.141
34.2865 6.083 0.145
34.2936 6.260 0.147
34.3008 6.056 0.145
34.3079 5.913 0.143
34.3151 5.851 0.143
34.3222 5.906 0.143
34.3294 6.198 0.147
34.3365 6.076 0.145
34.3437 6.111 0.146
34.3508 5.958 0.144
34.3579 6.205 0.147
34.3651 6.292 0.148
34.3722 6.510 0.150
34.3794 6.399 0.149
34.3865 6.389 0.149
34.3937 6.160 0.146
34.4008 6.240 0.147
34.4080 6.757 0.153
34.4151 6.632 0.152
34.4223 6.774 0.153
34.4294 6.670 0.152
34.4365 6.649 0.152
34.4437 6.962 0.155
34.4508 6.826 0.154
34.4580 6.604 0.151
34.4651 6.997 0.156
34.4723 6.941 0.155
34.4794 6.896 0.155
34.4866 6.948 0.155
34.4937 6.806 0.154
34.5009 6.872 0.154
34.5080 6.885 0.155
34.5151 7.031 0.156
34.5223 7.205 0.158
34.5294 6.861 0.154
34.5366 7.031 0.156
34.5437 7.000 0.156
34.5509 7.059 0.157
34.5580 7.125 0.157
34.5652 7.358 0.160
34.5723 7.424 0.161
34.5794 7.313 0.159
34.5866 7.497 0.161
34.5937 7.281 0.159
34.6009 7.365 0.160
34.6080 7.875 0.165
34.6152 7.729 0.164
34.6223 8.066 0.167
34.6295 8.229 0.169
34.6366 8.118 0.168
34.6438 8.281 0.170
34.6509 7.920 0.166
34.6580 8.403 0.171
34.6652 8.736 0.174
34.6723 8.896 0.176
34.6795 8.764 0.174
34.6866 9.135 0.178
34.6938 9.222 0.179
34.7009 8.865 0.175
34.7081 9.135 0.178
34.7152 9.135 0.178
34.7224 9.608 0.183
34.7295 9.392 0.181
34.7366 9.132 0.178
34.7438 9.361 0.180
34.7509 9.021 0.177
34.7581 9.031 0.177
34.7652 8.847 0.175
34.7724 9.059 0.177
34.7795 8.444 0.171
34.7867 8.208 0.169
34.7938 8.417 0.171
34.8009 8.316 0.170
34.8081 8.243 0.169
34.8152 8.208 0.169
34.8224 8.139 0.168
34.8295 8.649 0.173
34.8367 8.535 0.172
34.8438 8.486 0.172
34.8510 8.576 0.173
34.8581 8.889 0.176
34.8653 9.184 0.179
34.8724 9.024 0.177
34.8795 9.260 0.179
34.8867 9.514 0.182
34.8938 9.608 0.183
34.9010 10.181 0.188
34.9081 10.330 0.189
34.9153 10.503 0.191
34.9224 10.677 0.193
34.9296 10.726 0.193
34.9367 11.264 0.198
34.9439 11.816 0.203
34.9510 11.896 0.203
34.9581 11.816 0.203
34.9653 12.167 0.206
34.9724 12.063 0.205
34.9796 12.399 0.207
34.9867 12.608 0.209
34.9939 12.906 0.212
35.0010 13.038 0.213
35.0082 13.156 0.214
35.0153 13.128 0.214
35.0224 13.208 0.214
35.0296 13.153 0.214
35.0367 13.392 0.216
35.0439 13.458 0.216
35.0510 13.538 0.217
35.0582 12.941 0.212
35.0653 12.007 0.204
35.0725 11.826 0.203
35.0796 11.212 0.197
35.0868 10.816 0.194
35.0939 10.549 0.191
35.1010 10.087 0.187
35.1082 9.493 0.182
35.1153 8.885 0.176
35.1225 9.177 0.179
35.1296 8.955 0.176
35.1368 8.635 0.173
35.1439 8.507 0.172
35.1511 8.694 0.174
35.1582 8.434 0.171
35.1654 8.899 0.176
35.1725 8.281 0.170
35.1796 8.330 0.170
35.1868 8.691 0.174
35.1939 8.917 0.176
35.2011 8.851 0.175
35.2082 8.781 0.175
35.2154 8.809 0.175
35.2225 9.188 0.179
35.2297 9.177 0.179
35.2368 9.201 0.179
35.2440 9.319 0.180
35.2511 9.333 0.180
35.2582 9.569 0.182
35.2654 9.226 0.179
35.2725 9.118 0.178
35.2797 9.250 0.179
35.2868 8.889 0.176
35.2940 8.438 0.171
35.3011 8.146 0.168
35.3083 8.056 0.167
35.3154 7.649 0.163
35.3225 7.281 0.159
35.3297 7.375 0.160
35.3368 6.944 0.155
35.3440 6.830 0.154
35.3511 6.830 0.154
35.3583 6.503 0.150
35.3654 6.413 0.149
35.3726 6.226 0.147
35.3797 6.431 0.149
35.3869 6.514 0.150
35.3940 6.566 0.151
35.4011 6.253 0.147
35.4083 6.361 0.149
35.4154 6.323 0.148
35.4226 6.132 0.146
35.4297 6.184 0.147
35.4369 6.194 0.147
35.4440 6.410 0.149
35.4512 6.274 0.148
35.4583 6.340 0.148
35.4655 6.188 0.147
35.4726 5.990 0.144
35.4797 6.201 0.147
35.4869 5.913 0.143
35.4940 5.875 0.143
35.5012 6.149 0.146
35.5083 6.323 0.148
35.5155 6.247 0.147
35.5226 6.198 0.147
35.5298 6.222 0.147
35.5369 6.559 0.151
35.5440 6.538 0.151
35.5512 6.451 0.150
35.5583 6.639 0.152
35.5655 6.243 0.147
35.5726 6.368 0.149
35.5798 6.573 0.151
35.5869 6.566 0.151
35.5941 6.094 0.145
35.6012 6.601 0.151
35.6084 6.372 0.149
35.6155 6.563 0.151
35.6226 6.292 0.148
35.6298 6.833 0.154
35.6369 6.510 0.150
35.6441 6.715 0.153
35.6512 6.413 0.149
35.6584 6.500 0.150
35.6655 6.212 0.147
35.6727 6.750 0.153
35.6798 6.368 0.149
35.6870 6.465 0.150
35.6941 6.493 0.150
35.7012 6.684 0.152
35.7084 6.351 0.148
35.7155 6.781 0.153
35.7227 6.556 0.151
35.7298 6.903 0.155
35.7370 7.222 0.158
35.7441 7.135 0.157
35.7513 7.205 0.158
35.7584 7.083 0.157
35.7655 7.170 0.158
35.7727 7.361 0.160
35.7798 7.608 0.163
35.7870 7.642 0.163
35.7941 8.111 0.168
35.8013 8.035 0.167
35.8084 7.868 0.165
35.8156 8.500 0.172
35.8227 8.167 0.168
35.8299 8.344 0.170
35.8370 8.594 0.173
35.8441 8.736 0.174
35.8513 8.781 0.175
35.8584 8.861 0.175
35.8656 9.007 0.177
35.8727 9.198 0.179
35.8799 9.403 0.181
35.8870 9.142 0.178
35.8942 9.715 0.184
35.9013 9.590 0.182
35.9085 9.625 0.183
35.9156 9.760 0.184
35.9227 9.694 0.183
35.9299 9.403 0.181
35.9370 9.208 0.179
35.9442 9.358 0.180
35.9513 8.938 0.176
35.9585 9.111 0.178
35.9656 8.910 0.176
35.9728 8.778 0.175
35.9799 8.642 0.173
35.9870 8.253 0.169
35.9942 8.222 0.169
36.0013 8.108 0.168
36.0085 8.292 0.170
36.0156 8.330 0.170
36.0228 8.024 0.167
36.0299 7.885 0.165
36.0371 8.146 0.168
36.0442 8.469 0.171
36.0514 8.278 0.170
36.0585 8.545 0.172
36.0656 8.646 0.173
36.0728 8.656 0.173
36.0799 8.556 0.172
36.0871 8.493 0.172
36.0942 8.684 0.174
36.1014 8.760 0.174
36.1085 8.927 0.176
36.1157 9.003 0.177
36.1228 9.132 0.178
36.1300 8.990 0.177
36.1371 9.035 0.177
36.1442 9.177 0.179
36.1514 8.795 0.175
36.1585 9.003 0.177
36.1657 8.618 0.173
36.1728 8.583 0.173
36.1800 8.174 0.168
36.1871 7.889 0.166
36.1943 7.767 0.164
36.2014 7.597 0.162
36.2086 7.292 0.159
36.2157 7.493 0.161
36.2228 7.115 0.157
36.2300 6.917 0.155
36.2371 6.958 0.155
36.2443 6.642 0.152
36.2514 6.611 0.152
36.2586 6.396 0.149
36.2657 6.510 0.150
36.2729 6.531 0.151
36.2800 6.431 0.149
36.2871 6.510 0.150
36.2943 6.319 0.148
36.3014 6.222 0.147
36.3086 6.250 0.147
36.3157 6.149 0.146
36.3229 6.118 0.146
36.3300 6.326 0.148
36.3372 6.292 0.148
36.3443 6.316 0.148
36.3515 6.191 0.147
36.3586 6.188 0.147
36.3657 6.087 0.145
36.3729 6.021 0.145
36.3800 6.090 0.145
36.3872 5.997 0.144
36.3943 5.944 0.144
36.4015 5.924 0.143
36.4086 5.997 0.144
36.4158 5.938 0.144
36.4229 5.813 0.142
36.4301 5.903 0.143
36.4372 5.753 0.141
36.4443 5.795 0.142
36.4515 5.528 0.139
36.4586 5.406 0.137
36.4658 5.458 0.138
36.4729 5.646 0.140
36.4801 5.344 0.136
36.4872 5.476 0.138
36.4944 5.438 0.137
36.5015 5.368 0.137
36.5086 5.288 0.136
36.5158 5.142 0.134
36.5229 5.094 0.133
36.5301 5.219 0.135
36.5372 5.014 0.132
36.5444 4.951 0.131
36.5515 5.205 0.134
36.5587 5.146 0.134
36.5658 5.097 0.133
36.5730 5.052 0.132
36.5801 5.302 0.136
36.5872 5.285 0.135
36.5944 4.837 0.130
36.6015 5.128 0.133
36.6087 4.965 0.131
36.6158 5.142 0.134
36.6230 5.028 0.132
36.6301 4.958 0.131
36.6373 5.122 0.133
36.6444 5.052 0.132
36.6516 5.149 0.134
36.6587 5.073 0.133
36.6658 5.115 0.133
36.6730 5.076 0.133
36.6801 5.201 0.134
36.6873 5.000 0.132
36.6944 5.233 0.135
36.7016 5.115 0.133
36.7087 5.153 0.134
36.7159 5.163 0.134
36.7230 5.087 0.133
36.7301 4.910 0.131
36.7373 5.247 0.135
36.7444 5.163 0.134
36.7516 4.969 0.131
36.7587 4.934 0.131
36.7659 4.979 0.131
36.7730 5.125 0.133
36.7802 4.969 0.131
36.7873 4.979 0.131
36.7945 5.059 0.133
36.8016 4.951 0.131
36.8087 5.118 0.133
36.8159 5.205 0.134
36.8230 4.979 0.131
36.8302 5.101 0.133
36.8373 5.191 0.134
36.8445 5.014 0.132
36.8516 5.083 0.133
36.8588 4.743 0.128
36.8659 4.785 0.129
36.8731 5.038 0.132
36.8802 4.931 0.131
36.8873 5.156 0.134
36.8945 5.132 0.133
36.9016 4.983 0.132
36.9088 4.924 0.131
36.9159 5.125 0.133
36.9231 5.063 0.133
36.9302 4.951 0.131
36.9374 5.024 0.132
36.9445 4.965 0.131
36.9517 5.076 0.133
36.9588 5.184 0.134
36.9659 5.181 0.134
36.9731 5.313 0.136
36.9802 5.017 0.132
36.9874 5.076 0.133
36.9945 5.094 0.133
37.0017 4.951 0.131
37.0088 5.094 0.133
37.0160 5.007 0.132
37.0231 5.024 0.132
37.0302 5.007 0.132
37.0374 5.035 0.132
37.0445 4.715 0.128
37.0517 4.962 0.131
37.0588 4.865 0.130
37.0660 4.875 0.130
37.0731 4.948 0.131
37.0803 4.802 0.129
37.0874 4.917 0.131
37.0946 4.944 0.131
37.1017 4.823 0.129
37.1088 4.701 0.128
37.1160 5.014 0.132
37.1231 4.941 0.131
37.1303 4.997 0.132
37.1374 4.694 0.128
37.1446 4.837 0.130
37.1517 4.899 0.130
37.1589 5.069 0.133
37.1660 4.858 0.130
37.1732 4.639 0.127
37.1803 4.715 0.128
37.1874 4.750 0.128
37.1946 4.844 0.130
37.2017 4.799 0.129
37.2089 4.941 0.131
37.2160 4.917 0.131
37.2232 4.965 0.131
37.2303 4.722 0.128
37.2375 4.823 0.129
37.2446 4.837 0.130
37.2517 4.986 0.132
37.2589 4.997 0.132
37.2660 4.976 0.131
37.2732 5.101 0.133
37.2803 4.639 0.127
37.2875 4.972 0.131
37.2946 4.806 0.129
37.3018 4.792 0.129
37.3089 4.938 0.131
37.3161 4.740 0.128
37.3232 5.115 0.133
37.3303 4.618 0.127
37.3375 4.740 0.128
37.3446 4.903 0.130
37.3518 5.035 0.132
37.3589 4.990 0.132
37.3661 4.997 0.132
37.3732 4.826 0.129
37.3804 5.260 0.135
37.3875 5.028 0.132
37.3947 4.986 0.132
37.4018 4.882 0.130
37.4089 4.736 0.128
37.4161 5.174 0.134
37.4232 4.774 0.129
37.4304 4.837 0.130
37.4375 4.760 0.129
37.4447 5.003 0.132
37.4518 5.160 0.134
37.4590 4.872 0.130
37.4661 5.056 0.132
37.4732 4.944 0.131
37.4804 5.080 0.133
37.4875 4.913 0.131
37.4947 4.955 0.131
37.5018 4.712 0.128
37.5090 4.920 0.131
37.5161 4.792 0.129
37.5233 4.878 0.130
37.5304 4.712 0.128
37.5376 4.938 0.131
37.5447 4.931 0.131
37.5518 4.927 0.131
37.5590 4.938 0.131
37.5661 4.910 0.131
37.5733 4.885 0.130
37.5804 4.934 0.131
37.5876 4.788 0.129
37.5947 4.896 0.130
37.6019 4.927 0.131
37.6090 5.198 0.134
37.6162 4.993 0.132
37.6233 4.958 0.131
37.6304 4.819 0.129
37.6376 5.000 0.132
37.6447 4.906 0.131
37.6519 4.910 0.131
37.6590 4.958 0.131
37.6662 4.948 0.131
37.6733 4.826 0.129
37.6805 4.993 0.132
37.6876 4.837 0.130
37.6947 4.740 0.128
37.7019 4.917 0.131
37.7090 4.840 0.130
37.7162 4.962 0.131
37.7233 5.056 0.132
37.7305 4.747 0.128
37.7376 4.750 0.128
37.7448 5.024 0.132
37.7519 4.663 0.127
37.7591 4.635 0.127
37.7662 4.955 0.131
37.7733 4.972 0.131
37.7805 4.920 0.131
37.7876 4.535 0.125
37.7948 4.944 0.131
37.8019 4.684 0.128
37.8091 4.896 0.130
37.8162 4.927 0.131
37.8234 4.903 0.130
37.8305 4.913 0.131
37.8377 4.924 0.131
37.8448 4.865 0.130
37.8519 4.941 0.131
37.8591 4.885 0.130
37.8662 4.896 0.130
37.8734 5.056 0.132
37.8805 4.990 0.132
37.8877 4.681 0.127
37.8948 4.736 0.128
37.9020 4.819 0.129
37.9091 4.927 0.131
37.9163 4.688 0.128
37.9234 4.906 0.131
37.9305 4.861 0.130
37.9377 4.701 0.128
37.9448 4.899 0.130
37.9520 5.014 0.132
37.9591 4.681 0.127
37.9663 4.753 0.128
37.9734 4.764 0.129
37.9806 4.670 0.127
37.9877 4.872 0.130
37.9948 5.003 0.132
38.0020 4.819 0.129
38.0091 4.476 0.125
38.0163 4.799 0.129
38.0234 4.667 0.127
38.0306 4.837 0.130
38.0377 4.757 0.129
38.0449 4.913 0.131
38.0520 4.927 0.131
38.0592 4.712 0.128
38.0663 4.868 0.130
38.0734 4.885 0.130
38.0806 5.052 0.132
38.0877 4.802 0.129
38.0949 4.872 0.130
38.1020 4.559 0.126
38.1092 4.938 0.131
38.1163 4.969 0.131
38.1235 4.712 0.128
38.1306 4.868 0.130
38.1378 4.795 0.129
38.1449 4.878 0.130
38.1520 4.583 0.126
38.1592 4.813 0.129
38.1663 4.941 0.131
38.1735 4.833 0.130
38.1806 5.059 0.133
38.1878 4.799 0.129
38.1949 4.747 0.128
38.2021 5.108 0.133
38.2092 4.691 0.128
38.2163 4.997 0.132
38.2235 4.858 0.130
38.2306 4.872 0.130
38.2378 4.837 0.130
38.2449 4.910 0.131
38.2521 5.184 0.134
38.2592 5.135 0.134
38.2664 5.233 0.135
38.2735 4.983 0.132
38.2807 5.087 0.133
38.2878 4.965 0.131
38.2949 5.142 0.134
38.3021 5.146 0.134
38.3092 5.073 0.133
38.3164 5.108 0.133
38.3235 5.181 0.134
38.3307 5.507 0.138
38.3378 5.233 0.135
38.3450 5.344 0.136
38.3521 5.194 0.134
38.3593 5.302 0.136
38.3664 5.156 0.134
38.3735 5.323 0.136
38.3807 5.431 0.137
38.3878 5.326 0.136
38.3950 5.389 0.137
38.4021 5.455 0.138
38.4093 5.476 0.138
38.4164 5.153 0.134
38.4236 5.396 0.137
38.4307 5.010 0.132
38.4378 5.358 0.136
38.4450 5.510 0.138
38.4521 5.323 0.136
38.4593 5.083 0.133
38.4664 5.503 0.138
38.4736 5.271 0.135
38.4807 5.330 0.136
38.4879 5.507 0.138
38.4950 5.406 0.137
38.5022 5.566 0.139
38.5093 5.368 0.137
38.5164 5.528 0.139
38.5236 5.455 0.138
38.5307 5.302 0.136
38.5379 5.844 0.142
38.5450 5.455 0.138
38.5522 5.580 0.139
38.5593 5.569 0.139
38.5665 5.441 0.137
38.5736 5.618 0.140
38.5808 5.944 0.144
38.5879 5.608 0.140
38.5950 5.587 0.139
38.6022 5.743 0.141
38.6093 6.087 0.145
38.6165 5.753 0.141
38.6236 5.844 0.142
38.6308 5.802 0.142
38.6379 5.833 0.142
38.6451 5.885 0.143
38.6522 5.757 0.141
38.6594 5.969 0.144
38.6665 5.434 0.137
38.6736 6.031 0.145
38.6808 6.267 0.148
38.6879 6.215 0.147
38.6951 6.094 0.145
38.7022 6.226 0.147
38.7094 6.344 0.148
38.7165 6.382 0.149
38.7237 6.208 0.147
38.7308 6.476 0.150
38.7379 6.649 0.152
38.7451 6.802 0.154
38.7522 6.778 0.153
38.7594 6.917 0.155
38.7665 7.264 0.159
38.7737 7.049 0.156
38.7808 7.441 0.161
38.7880 7.535 0.162
38.7951 7.455 0.161
38.8023 7.622 0.163
38.8094 7.760 0.164
38.8165 7.906 0.166
38.8237 7.990 0.167
38.8308 8.274 0.169
38.8380 8.500 0.172
38.8451 8.635 0.173
38.8523 8.823 0.175
38.8594 9.115 0.178
38.8666 8.809 0.175
38.8737 8.906 0.176
38.8809 9.028 0.177
38.8880 9.059 0.177
38.8951 8.545 0.172
38.9023 8.917 0.176
38.9094 8.858 0.175
38.9166 8.736 0.174
38.9237 8.785 0.175
38.9309 8.729 0.174
38.9380 8.736 0.174
38.9452 8.326 0.170
38.9523 8.503 0.172
38.9594 8.111 0.168
38.9666 8.260 0.169
38.9737 7.778 0.164
38.9809 7.608 0.163
38.9880 7.556 0.162
38.9952 7.264 0.159
39.0023 7.313 0.159
39.0095 6.788 0.154
39.0166 6.767 0.153
39.0238 6.663 0.152
39.0309 6.722 0.153
39.0380 6.510 0.150
39.0452 6.542 0.151
39.0523 6.597 0.151
39.0595 6.556 0.151
39.0666 6.649 0.152
39.0738 6.938 0.155
39.0809 6.469 0.150
39.0881 6.851 0.154
39.0952 6.476 0.150
39.1024 6.785 0.153
39.1095 6.507 0.150
39.1166 6.681 0.152
39.1238 6.781 0.153
39.1309 6.753 0.153
39.1381 6.750 0.153
39.1452 6.722 0.153
39.1524 6.597 0.151
39.1595 6.542 0.151
39.1667 6.326 0.148
39.1738 6.653 0.152
39.1809 6.608 0.151
39.1881 6.260 0.147
39.1952 6.122 0.146
39.2024 6.007 0.144
39.2095 5.892 0.143
39.2167 5.910 0.143
39.2238 5.396 0.137
39.2310 5.733 0.141
39.2381 5.549 0.139
39.2453 5.205 0.134
39.2524 5.396 0.137
39.2595 5.163 0.134
39.2667 5.063 0.133
39.2738 5.135 0.134
39.2810 4.976 0.131
39.2881 5.028 0.132
39.2953 4.767 0.129
39.3024 4.753 0.128
39.3096 4.851 0.130
39.3167 4.861 0.130
39.3239 4.788 0.129
39.3310 4.830 0.130
39.3381 4.694 0.128
39.3453 4.747 0.128
39.3524 4.674 0.127
39.3596 4.747 0.128
39.3667 4.760 0.129
39.3739 4.677 0.127
39.3810 4.531 0.125
39.3882 4.590 0.126
39.3953 4.465 0.125
39.4024 4.590 0.126
39.4096 4.434 0.124
39.4167 4.500 0.125
39.4239 4.660 0.127
39.4310 4.622 0.127
39.4382 4.549 0.126
39.4453 4.535 0.125
39.4525 4.625 0.127
39.4596 4.462 0.124
39.4668 4.628 0.127
39.4739 4.549 0.126
39.4810 4.427 0.124
39.4882 4.590 0.126
39.4953 4.382 0.123
39.5025 4.451 0.124
39.5096 4.569 0.126
39.5168 4.483 0.125
39.5239 4.434 0.124
39.5311 4.309 0.122
39.5382 4.337 0.123
39.5454 4.385 0.123
39.5525 4.441 0.124
39.5596 4.288 0.122
39.5668 4.351 0.123
39.5739 4.580 0.126
39.5811 4.309 0.122
39.5882 4.622 0.127
39.5954 4.674 0.127
39.6025 4.486 0.125
39.6097 4.326 0.123
39.6168 4.431 0.124
39.6240 4.507 0.125
39.6311 4.628 0.127
39.6382 4.490 0.125
39.6454 4.524 0.125
39.6525 4.559 0.126
39.6597 4.594 0.126
39.6668 4.597 0.126
39.6740 4.441 0.124
39.6811 4.444 0.124
39.6883 4.344 0.123
39.6954 4.392 0.123
39.7025 4.333 0.123
39.7097 4.542 0.126
39.7168 4.417 0.124
39.7240 4.149 0.120
39.7311 4.431 0.124
39.7383 4.490 0.125
39.7454 4.288 0.122
39.7526 4.313 0.122
39.7597 4.340 0.123
39.7669 4.281 0.122
39.7740 4.497 0.125
39.7811 4.458 0.124
39.7883 4.573 0.126
39.7954 4.361 0.123
39.8026 4.531 0.125
39.8097 4.302 0.122
39.8169 4.188 0.121
39.8240 4.542 0.126
39.8312 4.455 0.124
39.8383 4.545 0.126
39.8455 4.569 0.126
39.8526 4.309 0.122
39.8597 4.490 0.125
39.8669 4.448 0.124
39.8740 4.528 0.125
39.8812 4.333 0.123
39.8883 4.285 0.122
39.8955 4.455 0.124
39.9026 4.465 0.125
39.9098 4.486 0.125
39.9169 4.358 0.123
39.9240 4.434 0.124
39.9312 4.469 0.125
39.9383 4.500 0.125
39.9455 4.594 0.126
39.9526 4.684 0.128
39.9598 4.431 0.124
39.9669 4.531 0.125
39.9741 4.424 0.124
39.9812 4.747 0.128
39.9884 4.642 0.127
39.9955 4.611 0.127
40.0026 4.545 0.126
40.0098 4.417 0.124
40.0169 4.483 0.125
40.0241 4.625 0.127
40.0312 4.549 0.126
40.0384 4.813 0.129
40.0455 4.837 0.130
40.0527 4.753 0.128
40.0598 4.910 0.131
40.0670 4.882 0.130
40.0741 4.694 0.128
40.0812 4.882 0.130
40.0884 4.993 0.132
40.0955 4.753 0.128
40.1027 4.587 0.126
40.1098 4.503 0.125
40.1170 4.618 0.127
40.1241 4.816 0.129
40.1313 4.771 0.129
40.1384 4.924 0.131
40.1455 4.524 0.125
40.1527 4.688 0.128
40.1598 4.788 0.129
40.1670 4.816 0.129
40.1741 4.844 0.130
40.1813 4.976 0.131
40.1884 5.257 0.135
40.1956 4.729 0.128
40.2027 4.927 0.131
40.2099 4.771 0.129
40.2170 4.788 0.129
40.2241 4.795 0.129
40.2313 4.823 0.129
40.2384 5.003 0.132
40.2456 4.958 0.131
40.2527 4.712 0.128
40.2599 5.076 0.133
40.2670 5.066 0.133
40.2742 4.833 0.130
40.2813 5.080 0.133
40.2885 4.806 0.129
40.2956 5.278 0.135
40.3027 4.955 0.131
40.3099 5.365 0.136
40.3170 5.208 0.134
40.3242 5.028 0.132
40.3313 4.969 0.131
40.3385 5.208 0.134
40.3456 5.274 0.135
40.3528 5.097 0.133
40.3599 5.271 0.135
40.3671 5.205 0.134
40.3742 5.354 0.136
40.3813 5.243 0.135
40.3885 5.524 0.138
40.3956 5.212 0.135
40.4028 5.226 0.135
40.4099 5.267 0.135
40.4171 5.424 0.137
40.4242 5.368 0.137
40.4314 5.576 0.139
40.4385 5.531 0.139
40.4456 5.795 0.142
40.4528 5.642 0.140
40.4599 5.837 0.142
40.4671 6.191 0.147
40.4742 6.087 0.145
40.4814 6.236 0.147
40.4885 6.385 0.149
40.4957 6.264 0.147
40.5028 6.733 0.153
40.5100 6.681 0.152
40.5171 6.507 0.150
40.5242 6.799 0.154
40.5314 7.177 0.158
40.5385 6.837 0.154
40.5457 7.031 0.156
40.5528 7.292 0.159
40.5600 7.212 0.158
40.5671 7.135 0.157
40.5743 7.462 0.161
40.5814 7.184 0.158
40.5886 7.073 0.157
40.5957 7.618 0.163
40.6028 7.740 0.164
40.6100 7.271 0.159
40.6171 7.566 0.162
40.6243 7.000 0.156
40.6314 7.257 0.159
40.6386 7.045 0.156
40.6457 6.830 0.154
40.6529 6.826 0.154
40.6600 6.681 0.152
40.6671 6.406 0.149
40.6743 6.552 0.151
40.6814 6.052 0.145
40.6886 6.045 0.145
40.6957 6.240 0.147
40.7029 5.903 0.143
40.7100 6.104 0.146
40.7172 5.743 0.141
40.7243 5.656 0.140
40.7315 5.733 0.141
40.7386 5.910 0.143
40.7457 5.434 0.137
40.7529 5.740 0.141
40.7600 5.719 0.141
40.7672 5.878 0.143
40.7743 5.788 0.142
40.7815 5.538 0.139
40.7886 5.750 0.141
40.7958 5.587 0.139
40.8029 5.913 0.143
40.8101 5.698 0.141
40.8172 5.882 0.143
40.8243 5.809 0.142
40.8315 5.997 0.144
40.8386 5.865 0.143
40.8458 5.816 0.142
40.8529 5.903 0.143
40.8601 5.938 0.144
40.8672 6.111 0.146
40.8744 6.090 0.145
40.8815 5.559 0.139
40.8886 5.726 0.141
40.8958 5.632 0.140
40.9029 5.549 0.139
40.9101 5.521 0.138
40.9172 5.503 0.138
40.9244 5.299 0.136
40.9315 5.069 0.133
40.9387 5.000 0.132
40.9458 4.889 0.130
40.9530 5.031 0.132
40.9601 4.903 0.130
40.9672 4.875 0.130
40.9744 4.701 0.128
40.9815 4.646 0.127
40.9887 4.417 0.124
40.9958 4.306 0.122
41.0030 4.507 0.125
41.0101 4.736 0.128
41.0173 4.347 0.123
41.0244 4.573 0.126
41.0316 4.580 0.126
41.0387 4.503 0.125
41.0458 4.524 0.125
41.0530 4.639 0.127
41.0601 4.375 0.123
41.0673 4.434 0.124
41.0744 4.514 0.125
41.0816 4.444 0.124
41.0887 4.434 0.124
41.0959 4.569 0.126
41.1030 4.194 0.121
41.1101 4.441 0.124
41.1173 4.507 0.125
41.1244 4.337 0.123
41.1316 4.337 0.123
41.1387 4.274 0.122
41.1459 4.361 0.123
41.1530 4.385 0.123
41.1602 4.313 0.122
41.1673 4.597 0.126
41.1745 4.538 0.126
41.1816 4.247 0.121
41.1887 4.441 0.124
41.1959 4.420 0.124
41.2030 4.229 0.121
41.2102 4.215 0.121
41.2173 4.316 0.122
41.2245 4.556 0.126
41.2316 4.483 0.125
41.2388 4.663 0.127
41.2459 4.451 0.124
41.2531 4.524 0.125
41.2602 4.500 0.125
41.2673 4.524 0.125
41.2745 4.528 0.125
41.2816 4.774 0.129
41.2888 4.601 0.126
41.2959 4.892 0.130
41.3031 4.830 0.130
41.3102 4.427 0.124
41.3174 4.622 0.127
41.3245 4.677 0.127
41.3317 4.719 0.128
41.3388 4.837 0.130
41.3459 4.906 0.131
41.3531 4.882 0.130
41.3602 4.694 0.128
41.3674 4.847 0.130
41.3745 4.767 0.129
41.3817 4.840 0.130
41.3888 5.038 0.132
41.3960 4.806 0.129
41.4031 4.983 0.132
41.4102 4.903 0.130
41.4174 4.771 0.129
41.4245 4.733 0.128
41.4317 4.545 0.126
41.4388 4.611 0.127
41.4460 4.618 0.127
41.4531 4.604 0.126
41.4603 4.438 0.124
41.4674 4.410 0.124
41.4746 4.247 0.121
41.4817 4.313 0.122
41.4888 4.212 0.121
41.4960 4.361 0.123
41.5031 4.378 0.123
41.5103 4.438 0.124
41.5174 4.389 0.123
41.5246 4.292 0.122
41.5317 4.288 0.122
41.5389 4.108 0.119
41.5460 4.378 0.123
41.5532 4.330 0.123
41.5603 4.580 0.126
41.5674 4.278 0.122
41.5746 4.285 0.122
41.5817 4.455 0.124
41.5889 4.521 0.125
41.5960 4.413 0.124
41.6032 4.149 0.120
41.6103 4.208 0.121
41.6175 4.493 0.125
41.6246 4.323 0.123
41.6317 4.316 0.122
41.6389 4.448 0.124
41.6460 4.469 0.125
41.6532 4.288 0.122
41.6603 4.521 0.125
41.6675 4.212 0.121
41.6746 4.493 0.125
41.6818 4.337 0.123
41.6889 4.132 0.120
41.6961 4.253 0.122
41.7032 4.122 0.120
41.7103 4.240 0.121
41.7175 4.372 0.123
41.7246 4.302 0.122
41.7318 4.135 0.120
41.7389 4.274 0.122
41.7461 3.941 0.117
41.7532 4.028 0.118
41.7604 3.986 0.118
41.7675 4.115 0.120
41.7747 4.188 0.121
41.7818 4.104 0.119
41.7889 3.962 0.117
41.7961 4.007 0.118
41.8032 4.174 0.120
41.8104 3.833 0.115
41.8175 4.222 0.121
41.8247 3.920 0.117
41.8318 4.045 0.119
41.8390 3.792 0.115
41.8461 3.892 0.116
41.8532 3.934 0.117
41.8604 4.125 0.120
41.8675 4.128 0.120
41.8747 4.063 0.119
41.8818 3.924 0.117
41.8890 3.976 0.117
41.8961 4.215 0.121
41.9033 3.955 0.117
41.9104 3.948 0.117
41.9176 4.188 0.121
41.9247 3.979 0.118
41.9318 3.938 0.117
41.9390 3.903 0.116
41.9461 4.208 0.121
41.9533 3.927 0.117
41.9604 3.948 0.117
41.9676 3.906 0.116
41.9747 4.000 0.118
41.9819 4.010 0.118
41.9890 4.028 0.118
41.9962 3.948 0.117
42.0033 4.035 0.118
42.0104 3.809 0.115
42.0176 4.052 0.119
42.0247 4.142 0.120
42.0319 3.917 0.117
42.0390 4.201 0.121
42.0462 4.170 0.120
42.0533 3.872 0.116
42.0605 3.608 0.112
42.0676 4.007 0.118
42.0748 3.990 0.118
42.0819 4.142 0.120
42.0890 4.031 0.118
42.0962 3.719 0.114
42.1033 3.927 0.117
42.1105 3.837 0.115
42.1176 3.885 0.116
42.1248 4.063 0.119
42.1319 3.809 0.115
42.1391 3.635 0.112
42.1462 4.056 0.119
42.1533 3.778 0.115
42.1605 4.028 0.118
42.1676 3.809 0.115
42.1748 3.986 0.118
42.1819 4.188 0.121
42.1891 4.000 0.118
42.1962 4.056 0.119
42.2034 3.927 0.117
42.2105 3.764 0.114
42.2177 3.944 0.117
42.2248 3.771 0.114
42.2319 3.778 0.115
42.2391 3.889 0.116
42.2462 3.774 0.114
42.2534 3.840 0.115
42.2605 3.889 0.116
42.2677 3.785 0.115
42.2748 3.872 0.116
42.2820 3.806 0.115
42.2891 3.938 0.117
42.2963 3.858 0.116
42.3034 4.097 0.119
42.3105 3.962 0.117
42.3177 4.149 0.120
42.3248 3.830 0.115
42.3320 4.003 0.118
42.3391 3.938 0.117
42.3463 4.003 0.118
42.3534 3.878 0.116
42.3606 3.931 0.117
42.3677 3.847 0.116
42.3748 4.028 0.118
42.3820 3.646 0.113
42.3891 4.007 0.118
42.3963 3.896 0.116
42.4034 3.997 0.118
42.4106 3.903 0.116
42.4177 3.747 0.114
42.4249 3.885 0.116
42.4320 3.941 0.117
42.4392 3.951 0.117
42.4463 4.094 0.119
42.4534 3.875 0.116
42.4606 3.806 0.115
42.4677 4.052 0.119
42.4749 3.802 0.115
42.4820 3.882 0.116
42.4892 3.583 0.112
42.4963 3.830 0.115
42.5035 4.042 0.118
42.5106 4.049 0.119
42.5178 3.844 0.116
42.5249 4.094 0.119
42.5320 3.778 0.115
42.5392 4.076 0.119
42.5463 3.913 0.117
42.5535 3.944 0.117
42.5606 4.170 0.120
42.5678 3.997 0.118
42.5749 4.118 0.120
42.5821 3.875 0.116
42.5892 3.972 0.117
42.5963 3.983 0.118
42.6035 3.896 0.116
42.6106 3.719 0.114
42.6178 3.819 0.115
42.6249 3.962 0.117
42.6321 3.878 0.116
42.6392 3.715 0.114
42.6464 3.743 0.114
42.6535 4.010 0.118
42.6607 4.073 0.119
42.6678 3.917 0.117
42.6749 3.750 0.114
42.6821 3.740 0.114
42.6892 3.868 0.116
42.6964 3.851 0.116
42.7035 3.941 0.117
42.7107 3.917 0.117
42.7178 3.851 0.116
42.7250 3.903 0.116
42.7321 3.694 0.113
42.7393 3.830 0.115
42.7464 3.851 0.116
42.7535 3.944 0.117
42.7607 3.861 0.116
42.7678 3.830 0.115
42.7750 3.733 0.114
42.7821 4.132 0.120
42.7893 3.875 0.116
42.7964 3.906 0.116
42.8036 3.792 0.115
42.8107 3.847 0.116
42.8178 4.042 0.118
42.8250 3.934 0.117
42.8321 3.757 0.114
42.8393 3.868 0.116
42.8464 3.882 0.116
42.8536 3.851 0.116
42.8607 3.969 0.117
42.8679 3.955 0.117
42.8750 3.938 0.117
42.8822 3.979 0.118
42.8893 3.722 0.114
42.8964 3.868 0.116
42.9036 4.087 0.119
42.9107 4.056 0.119
42.9179 3.771 0.114
42.9250 4.063 0.119
42.9322 3.896 0.116
42.9393 3.955 0.117
42.9465 3.774 0.114
42.9536 3.951 0.117
42.9608 3.892 0.116
42.9679 3.997 0.118
42.9750 3.823 0.115
42.9822 3.726 0.114
42.9893 3.722 0.114
42.9965 3.948 0.117
43.0036 3.646 0.113
43.0108 3.892 0.116
43.0179 3.955 0.117
43.0251 4.024 0.118
43.0322 3.809 0.115
43.0394 3.840 0.115
43.0465 3.903 0.116
43.0536 4.111 0.119
43.0608 3.934 0.117
43.0679 4.128 0.120
43.0751 3.851 0.116
43.0822 3.865 0.116
43.0894 3.799 0.115
43.0965 3.931 0.117
43.1037 4.066 0.119
43.1108 3.938 0.117
43.1179 4.132 0.120
43.1251 3.983 0.118
43.1322 4.083 0.119
43.1394 3.938 0.117
43.1465 3.903 0.116
43.1537 3.840 0.115
43.1608 3.809 0.115
43.1680 3.969 0.117
43.1751 3.990 0.118
43.1823 3.997 0.118
43.1894 3.969 0.117
43.1965 3.948 0.117
43.2037 4.097 0.119
43.2108 3.948 0.117
43.2180 3.875 0.116
43.2251 3.924 0.117
43.2323 4.080 0.119
43.2394 3.906 0.116
43.2466 3.618 0.112
43.2537 3.958 0.117
43.2609 4.049 0.119
43.2680 4.014 0.118
43.2751 3.813 0.115
43.2823 3.941 0.117
43.2894 3.948 0.117
43.2966 4.010 0.118
43.3037 3.951 0.117
43.3109 4.035 0.118
43.3180 4.174 0.120
43.3252 4.375 0.123
43.3323 3.979 0.118
43.3394 4.076 0.119
43.3466 3.976 0.117
43.3537 3.872 0.116
43.3609 3.819 0.115
43.3680 4.073 0.119
43.3752 4.017 0.118
43.3823 3.823 0.115
43.3895 3.719 0.114
43.3966 4.090 0.119
43.4038 4.028 0.118
43.4109 4.000 0.118
43.4180 3.986 0.118
43.4252 4.007 0.118
43.4323 4.035 0.118
43.4395 3.896 0.116
43.4466 4.083 0.119
43.4538 3.993 0.118
43.4609 3.993 0.118
43.4681 3.958 0.117
43.4752 4.097 0.119
43.4824 3.934 0.117
43.4895 3.979 0.118
43.4966 4.042 0.118
43.5038 4.247 0.121
43.5109 4.205 0.121
43.5181 4.052 0.119
43.5252 3.878 0.116
43.5324 4.024 0.118
43.5395 4.236 0.121
43.5467 4.125 0.120
43.5538 4.090 0.119
43.5609 4.198 0.121
43.5681 4.160 0.120
43.5752 3.976 0.117
43.5824 4.142 0.120
43.5895 4.271 0.122
43.5967 4.243 0.121
43.6038 4.118 0.120
43.6110 4.045 0.119
43.6181 4.274 0.122
43.6253 4.313 0.122
43.6324 4.434 0.124
43.6395 4.406 0.124
43.6467 4.285 0.122
43.6538 4.240 0.121
43.6610 4.535 0.125
43.6681 4.465 0.125
43.6753 4.688 0.128
43.6824 4.361 0.123
43.6896 4.719 0.128
43.6967 4.378 0.123
43.7039 4.635 0.127
43.7110 4.743 0.128
43.7181 4.903 0.130
43.7253 4.865 0.130
43.7324 4.771 0.129
43.7396 4.806 0.129
43.7467 4.819 0.129
43.7539 4.594 0.126
43.7610 4.948 0.131
43.7682 5.021 0.132
43.7753 4.792 0.129
43.7825 4.819 0.129
43.7896 5.066 0.133
43.7967 4.983 0.132
43.8039 4.979 0.131
43.8110 5.073 0.133
43.8182 5.285 0.135
43.8253 5.094 0.133
43.8325 5.253 0.135
43.8396 5.215 0.135
43.8468 5.156 0.134
43.8539 5.486 0.138
43.8610 5.153 0.134
43.8682 4.993 0.132
43.8753 5.483 0.138
43.8825 5.069 0.133
43.8896 5.458 0.138
43.8968 5.368 0.137
43.9039 5.188 0.134
43.9111 5.142 0.134
43.9182 5.153 0.134
43.9254 5.153 0.134
43.9325 5.229 0.135
43.9396 5.031 0.132
43.9468 5.306 0.136
43.9539 5.222 0.135
43.9611 5.271 0.135
43.9682 5.264 0.135
43.9754 5.285 0.135
43.9825 5.170 0.134
43.9897 5.205 0.134
43.9968 5.177 0.134
44.0040 5.472 0.138
44.0111 5.503 0.138
44.0182 5.535 0.139
44.0254 5.642 0.140
44.0325 5.764 0.141
44.0397 5.476 0.138
44.0468 5.837 0.142
44.0540 5.622 0.140
44.0611 5.733 0.141
44.0683 5.701 0.141
44.0754 5.799 0.142
44.0825 6.156 0.146
44.0897 5.920 0.143
44.0968 6.174 0.146
44.1040 6.090 0.145
44.1111 6.351 0.148
44.1183 6.306 0.148
44.1254 6.365 0.149
44.1326 6.597 0.151
44.1397 6.531 0.151
44.1469 6.712 0.153
44.1540 6.590 0.151
44.1611 6.938 0.155
44.1683 6.799 0.154
44.1754 7.149 0.158
44.1826 6.931 0.155
44.1897 7.177 0.158
44.1969 7.316 0.159
44.2040 7.587 0.162
44.2112 7.642 0.163
44.2183 7.233 0.158
44.2255 7.365 0.160
44.2326 7.681 0.163
44.2397 7.601 0.162
44.2469 7.809 0.165
44.2540 7.823 0.165
44.2612 7.760 0.164
44.2683 7.792 0.164
44.2755 8.059 0.167
44.2826 7.576 0.162
44.2898 7.580 0.162
44.2969 7.531 0.162
44.3040 7.563 0.162
44.3112 7.552 0.162
44.3183 7.465 0.161
44.3255 7.340 0.160
44.3326 7.174 0.158
44.3398 6.997 0.156
44.3469 6.774 0.153
44.3541 6.990 0.156
44.3612 6.771 0.153
44.3684 6.903 0.155
44.3755 6.844 0.154
44.3826 6.625 0.152
44.3898 7.017 0.156
44.3969 6.587 0.151
44.4041 6.806 0.154
44.4112 6.722 0.153
44.4184 6.542 0.151
44.4255 6.760 0.153
44.4327 6.733 0.153
44.4398 6.837 0.154
44.4470 6.663 0.152
44.4541 6.719 0.153
44.4612 6.750 0.153
44.4684 7.028 0.156
44.4755 7.073 0.157
44.4827 7.073 0.157
44.4898 6.913 0.155
44.4970 6.965 0.156
44.5041 7.236 0.159
44.5113 7.038 0.156
44.5184 7.069 0.157
44.5255 7.042 0.156
44.5327 7.007 0.156
44.5398 7.292 0.159
44.5470 7.302 0.159
44.5541 7.271 0.159
44.5613 7.194 0.158
44.5684 6.830 0.154
44.5756 6.910 0.155
44.5827 7.226 0.158
44.5899 6.774 0.153
44.5970 6.969 0.156
44.6041 6.997 0.156
44.6113 6.538 0.151
44.6184 6.736 0.153
44.6256 6.743 0.153
44.6327 6.472 0.150
44.6399 6.028 0.145
44.6470 6.087 0.145
44.6542 6.083 0.145
44.6613 5.816 0.142
44.6685 5.844 0.142
44.6756 5.306 0.136
44.6827 5.503 0.138
44.6899 5.365 0.136
44.6970 5.333 0.136
44.7042 5.340 0.136
44.7113 5.167 0.134
44.7185 4.892 0.130
44.7256 4.948 0.131
44.7328 5.111 0.133
44.7399 5.212 0.135
44.7471 4.830 0.130
44.7542 4.979 0.131
44.7613 4.885 0.130
44.7685 4.983 0.132
44.7756 4.917 0.131
44.7828 4.899 0.130
44.7899 5.031 0.132
44.7971 5.122 0.133
44.8042 4.677 0.127
44.8114 5.056 0.132
44.8185 5.007 0.132
44.8256 4.830 0.130
44.8328 4.865 0.130
44.8399 4.885 0.130
44.8471 5.128 0.133
44.8542 5.038 0.132
44.8614 5.201 0.134
44.8685 5.066 0.133
44.8757 4.837 0.130
44.8828 5.024 0.132
44.8900 4.948 0.131
44.8971 4.892 0.130
44.9042 4.785 0.129
44.9114 4.667 0.127
44.9185 4.844 0.130
44.9257 4.569 0.126
44.9328 4.719 0.128
44.9400 4.826 0.129
44.9471 4.660 0.127
44.9543 4.535 0.125
44.9614 4.510 0.125
44.9686 4.795 0.129
44.9757 4.656 0.127
44.9828 4.576 0.126
44.9900 4.542 0.126
44.9971 4.618 0.127
45.0043 4.514 0.125
45.0114 4.712 0.128
45.0186 4.490 0.125
45.0257 4.924 0.131
45.0329 4.767 0.129
45.0400 4.431 0.124
45.0471 4.608 0.126
45.0543 4.802 0.129
45.0614 4.587 0.126
45.0686 4.635 0.127
45.0757 4.677 0.127
45.0829 4.500 0.125
45.0900 4.351 0.123
45.0972 4.767 0.129
45.1043 4.806 0.129
45.1115 4.389 0.123
45.1186 4.597 0.126
45.1257 4.517 0.125
45.1329 4.719 0.128
45.1400 4.757 0.129
45.1472 4.688 0.128
45.1543 4.767 0.129
45.1615 4.743 0.128
45.1686 4.771 0.129
45.1758 4.802 0.129
45.1829 4.878 0.130
45.1901 4.906 0.131
45.1972 4.799 0.129
45.2043 5.003 0.132
45.2115 5.240 0.135
45.2186 5.024 0.132
45.2258 5.205 0.134
45.2329 4.830 0.130
45.2401 5.222 0.135
45.2472 4.944 0.131
45.2544 5.632 0.140
45.2615 5.295 0.136
45.2686 5.347 0.136
45.2758 5.458 0.138
45.2829 5.097 0.133
45.2901 5.524 0.138
45.2972 5.903 0.143
45.3044 5.448 0.138
45.3115 5.823 0.142
45.3187 5.288 0.136
45.3258 5.826 0.142
45.3330 5.757 0.141
45.3401 5.951 0.144
45.3472 5.813 0.142
45.3544 5.917 0.143
45.3615 6.080 0.145
45.3687 5.760 0.141
45.3758 6.069 0.145
45.3830 6.198 0.147
45.3901 6.434 0.149
45.3973 6.552 0.151
45.4044 6.503 0.150
45.4116 6.583 0.151
45.4187 6.903 0.155
45.4258 7.080 0.157
45.4330 7.111 0.157
45.4401 6.757 0.153
45.4473 7.462 0.161
45.4544 7.531 0.162
45.4616 7.701 0.164
45.4687 7.844 0.165
45.4759 7.799 0.165
45.4830 7.941 0.166
45.4902 8.229 0.169
45.4973 7.882 0.165
45.5044 8.326 0.170
45.5116 8.503 0.172
45.5187 8.726 0.174
45.5259 8.382 0.171
45.5330 8.174 0.168
45.5402 8.549 0.172
45.5473 8.924 0.176
45.5545 8.302 0.170
45.5616 8.979 0.177
45.5687 8.563 0.172
45.5759 8.681 0.174
45.5830 8.465 0.171
45.5902 8.493 0.172
45.5973 8.104 0.168
45.6045 8.122 0.168
45.6116 8.219 0.169
45.6188 8.108 0.168
45.6259 8.021 0.167
45.6331 8.080 0.167
45.6402 7.962 0.166
45.6473 7.927 0.166
45.6545 7.872 0.165
45.6616 7.819 0.165
45.6688 7.799 0.165
45.6759 8.090 0.168
45.6831 8.250 0.169
45.6902 8.340 0.170
45.6974 8.309 0.170
45.7045 8.420 0.171
45.7117 8.681 0.174
45.7188 8.670 0.174
45.7259 8.858 0.175
45.7331 8.639 0.173
45.7402 8.837 0.175
45.7474 9.361 0.180
45.7545 9.149 0.178
45.7617 9.587 0.182
45.7688 9.524 0.182
45.7760 9.281 0.180
45.7831 9.177 0.179
45.7902 9.594 0.183
45.7974 9.698 0.184
45.8045 9.587 0.182
45.8117 9.069 0.177
45.8188 9.524 0.182
45.8260 9.340 0.180
45.8331 9.049 0.177
45.8403 8.733 0.174
45.8474 8.497 0.172
45.8546 8.372 0.170
45.8617 8.358 0.170
45.8688 8.021 0.167
45.8760 7.507 0.161
45.8831 7.559 0.162
45.8903 7.177 0.158
45.8974 6.990 0.156
45.9046 6.833 0.154
45.9117 6.594 0.151
45.9189 6.628 0.152
45.9260 6.774 0.153
45.9332 6.271 0.148
45.9403 6.191 0.147
45.9474 6.142 0.146
45.9546 5.819 0.142
45.9617 6.229 0.147
45.9689 5.944 0.144
45.9760 6.132 0.146
45.9832 5.889 0.143
45.9903 6.014 0.145
45.9975 5.938 0.144
46.0046 5.941 0.144
46.0117 5.990 0.144
46.0189 5.931 0.143
46.0260 5.906 0.143
46.0332 6.128 0.146
46.0403 6.073 0.145
46.0475 6.153 0.146
46.0546 5.885 0.143
46.0618 6.465 0.150
46.0689 6.076 0.145
46.0761 5.990 0.144
46.0832 6.163 0.146
46.0903 6.194 0.147
46.0975 5.976 0.144
46.1046 5.896 0.143
46.1118 5.819 0.142
46.1189 5.847 0.142
46.1261 5.896 0.143
46.1332 5.576 0.139
46.1404 5.469 0.138
46.1475 5.278 0.135
46.1547 5.083 0.133
46.1618 5.326 0.136
46.1689 5.233 0.135
46.1761 4.931 0.131
46.1832 5.097 0.133
46.1904 4.813 0.129
46.1975 4.986 0.132
46.2047 4.865 0.130
46.2118 4.847 0.130
46.2190 4.493 0.125
46.2261 4.899 0.130
46.2332 4.684 0.128
46.2404 4.701 0.128
46.2475 4.778 0.129
46.2547 4.726 0.128
46.2618 4.503 0.125
46.2690 4.688 0.128
46.2761 4.531 0.125
46.2833 4.719 0.128
46.2904 4.819 0.129
46.2976 4.545 0.126
46.3047 4.677 0.127
46.3118 4.556 0.126
46.3190 4.597 0.126
46.3261 4.670 0.127
46.3333 4.941 0.131
46.3404 4.854 0.130
46.3476 4.795 0.129
46.3547 4.753 0.128
46.3619 4.906 0.131
46.3690 5.007 0.132
46.3762 4.795 0.129
46.3833 4.903 0.130
46.3904 4.875 0.130
46.3976 4.872 0.130
46.4047 4.896 0.130
46.4119 5.337 0.136
46.4190 4.983 0.132
46.4262 5.010 0.132
46.4333 5.042 0.132
46.4405 5.083 0.133
46.4476 5.142 0.134
46.4548 5.458 0.138
46.4619 5.233 0.135
46.4690 5.247 0.135
46.4762 5.205 0.134
46.4833 5.385 0.137
46.4905 5.372 0.137
46.4976 5.250 0.135
46.5048 5.510 0.138
46.5119 5.663 0.140
46.5191 5.545 0.139
46.5262 5.764 0.141
46.5333 5.292 0.136
46.5405 5.361 0.136
46.5476 5.490 0.138
46.5548 5.639 0.140
46.5619 5.528 0.139
46.5691 5.587 0.139
46.5762 5.309 0.136
46.5834 5.469 0.138
46.5905 5.469 0.138
46.5977 5.431 0.137
46.6048 5.608 0.140
46.6119 5.365 0.136
46.6191 5.479 0.138
46.6262 5.292 0.136
46.6334 5.260 0.135
46.6405 5.354 0.136
46.6477 5.892 0.143
46.6548 5.701 0.141
46.6620 5.722 0.141
46.6691 5.698 0.141
46.6763 5.392 0.137
46.6834 5.753 0.141
46.6905 5.622 0.140
46.6977 5.573 0.139
46.7048 5.486 0.138
46.7120 5.615 0.140
46.7191 5.451 0.138
46.7263 5.135 0.134
46.7334 5.094 0.133
46.7406 5.260 0.135
46.7477 4.997 0.132
46.7548 5.191 0.134
46.7620 5.069 0.133
46.7691 5.031 0.132
46.7763 4.885 0.130
46.7834 4.951 0.131
46.7906 4.847 0.130
46.7977 4.757 0.129
46.8049 4.736 0.128
46.8120 4.729 0.128
46.8192 4.618 0.127
46.8263 4.781 0.129
46.8334 4.424 0.124
46.8406 4.524 0.125
46.8477 4.642 0.127
46.8549 4.660 0.127
46.8620 4.642 0.127
46.8692 4.663 0.127
46.8763 4.618 0.127
46.8835 4.573 0.126
46.8906 4.712 0.128
46.8978 4.406 0.124
46.9049 4.542 0.126
46.9120 4.545 0.126
46.9192 4.566 0.126
46.9263 4.431 0.124
46.9335 4.410 0.124
46.9406 4.313 0.122
46.9478 4.451 0.124
46.9549 4.351 0.123
46.9621 4.510 0.125
46.9692 4.576 0.126
46.9763 4.323 0.123
46.9835 4.514 0.125
46.9906 4.469 0.125
46.9978 4.149 0.120
47.0049 4.576 0.126
47.0121 4.153 0.120
47.0192 4.392 0.123
47.0264 4.063 0.119
47.0335 4.188 0.121
47.0407 4.274 0.122
47.0478 3.934 0.117
47.0549 3.910 0.117
47.0621 3.924 0.117
47.0692 4.031 0.118
47.0764 3.878 0.116
47.0835 4.028 0.118
47.0907 3.760 0.114
47.0978 3.816 0.115
47.1050 3.948 0.117
47.1121 3.875 0.116
47.1193 3.712 0.114
47.1264 3.601 0.112
47.1335 3.708 0.113
47.1407 3.882 0.116
47.1478 3.691 0.113
47.1550 3.604 0.112
47.1621 3.816 0.115
47.1693 3.858 0.116
47.1764 3.799 0.115
47.1836 3.726 0.114
47.1907 3.785 0.115
47.1979 3.875 0.116
47.2050 3.736 0.114
47.2121 3.823 0.115
47.2193 3.611 0.112
47.2264 3.795 0.115
47.2336 3.632 0.112
47.2407 3.705 0.113
47.2479 3.674 0.113
47.2550 3.625 0.112
47.2622 3.708 0.113
47.2693 3.639 0.112
47.2764 3.535 0.111
47.2836 3.677 0.113
47.2907 3.743 0.114
47.2979 3.750 0.114
47.3050 3.691 0.113
47.3122 3.799 0.115
47.3193 3.715 0.114
47.3265 3.653 0.113
47.3336 3.632 0.112
47.3408 3.340 0.108
47.3479 3.896 0.116
47.3550 3.538 0.111
47.3622 3.569 0.111
47.3693 3.819 0.115
47.3765 3.750 0.114
47.3836 3.729 0.114
47.3908 3.691 0.113
47.3979 3.535 0.111
47.4051 3.785 0.115
47.4122 3.604 0.112
47.4194 3.663 0.113
47.4265 3.826 0.115
47.4336 3.597 0.112
47.4408 3.917 0.117
47.4479 3.757 0.114
47.4551 3.469 0.110
47.4622 3.635 0.112
47.4694 3.847 0.116
47.4765 3.639 0.112
47.4837 3.618 0.112
47.4908 3.670 0.113
47.4979 3.451 0.109
47.5051 3.774 0.114
47.5122 3.691 0.113
47.5194 3.677 0.113
47.5265 3.587 0.112
47.5337 3.708 0.113
47.5408 3.368 0.108
47.5480 3.646 0.113
47.5551 3.628 0.112
47.5623 3.747 0.114
47.5694 3.667 0.113
47.5765 3.795 0.115
47.5837 3.594 0.112
47.5908 3.517 0.111
47.5980 3.854 0.116
47.6051 3.538 0.111
47.6123 3.823 0.115
47.6194 3.670 0.113
47.6266 3.615 0.112
47.6337 3.563 0.111
47.6409 3.653 0.113
47.6480 3.649 0.113
47.6551 3.639 0.112
47.6623 3.580 0.111
47.6694 3.885 0.116
47.6766 3.688 0.113
47.6837 3.545 0.111
47.6909 3.646 0.113
47.6980 3.802 0.115
47.7052 3.403 0.109
47.7123 3.510 0.110
47.7194 3.615 0.112
47.7266 3.594 0.112
47.7337 3.479 0.110
47.7409 3.528 0.111
47.7480 3.677 0.113
47.7552 3.462 0.110
47.7623 3.531 0.111
47.7695 3.528 0.111
47.7766 3.590 0.112
47.7838 3.601 0.112
47.7909 3.594 0.112
47.7980 3.531 0.111
47.8052 3.622 0.112
47.8123 3.788 0.115
47.8195 3.601 0.112
47.8266 3.486 0.110
47.8338 3.552 0.111
47.8409 3.813 0.115
47.8481 3.656 0.113
47.8552 3.569 0.111
47.8624 3.785 0.115
47.8695 3.774 0.114
47.8766 3.642 0.112
47.8838 3.552 0.111
47.8909 3.375 0.108
47.8981 3.458 0.110
47.9052 3.351 0.108
47.9124 3.656 0.113
47.9195 3.351 0.108
47.9267 3.497 0.110
47.9338 3.295 0.107
47.9409 3.535 0.111
47.9481 3.660 0.113
47.9552 3.778 0.115
47.9624 3.417 0.109
47.9695 3.476 0.110
47.9767 3.646 0.113
47.9838 3.503 0.110
47.9910 3.674 0.113
47.9981 3.240 0.106
48.0053 3.649 0.113
48.0124 3.358 0.108
48.0195 3.458 0.110
48.0267 3.767 0.114
48.0338 3.726 0.114
48.0410 3.694 0.113
48.0481 3.372 0.108
48.0553 3.559 0.111
48.0624 3.632 0.112
48.0696 3.528 0.111
48.0767 3.608 0.112
48.0839 3.455 0.110
48.0910 3.524 0.111
48.0981 3.597 0.112
48.1053 3.615 0.112
48.1124 3.559 0.111
48.1196 3.247 0.106
48.1267 3.389 0.108
48.1339 3.576 0.111
48.1410 3.597 0.112
48.1482 3.448 0.109
48.1553 3.601 0.112
48.1625 3.510 0.110
48.1696 3.642 0.112
48.1767 3.656 0.113
48.1839 3.302 0.107
48.1910 3.441 0.109
48.1982 3.538 0.111
48.2053 3.458 0.110
48.2125 3.434 0.109
48.2196 3.625 0.112
48.2268 3.653 0.113
48.2339 3.431 0.109
48.2410 3.545 0.111
48.2482 3.590 0.112
48.2553 3.646 0.113
48.2625 3.448 0.109
48.2696 3.559 0.111
48.2768 3.476 0.110
48.2839 3.309 0.107
48.2911 3.688 0.113
48.2982 3.507 0.110
48.3054 3.663 0.113
48.3125 3.826 0.115
48.3196 3.722 0.114
48.3268 3.604 0.112
48.3339 3.316 0.107
48.3411 3.667 0.113
48.3482 3.795 0.115
48.3554 3.767 0.114
48.3625 3.642 0.112
48.3697 3.781 0.115
48.3768 3.753 0.114
48.3840 3.819 0.115
48.3911 3.597 0.112
48.3982 3.611 0.112
48.4054 3.708 0.113
48.4125 3.858 0.116
48.4197 3.701 0.113
48.4268 3.670 0.113
48.4340 3.611 0.112
48.4411 3.451 0.109
48.4483 3.510 0.110
48.4554 3.490 0.110
48.4625 3.712 0.114
48.4697 3.760 0.114
48.4768 3.788 0.115
48.4840 3.684 0.113
48.4911 3.694 0.113
48.4983 3.844 0.116
48.5054 3.750 0.114
48.5126 3.809 0.115
48.5197 3.924 0.117
48.5269 3.722 0.114
48.5340 3.931 0.117
48.5411 3.806 0.115
48.5483 3.764 0.114
48.5554 3.799 0.115
48.5626 3.872 0.116
48.5697 3.802 0.115
48.5769 3.896 0.116
48.5840 3.618 0.112
48.5912 3.781 0.115
48.5983 3.844 0.116
48.6055 3.861 0.116
48.6126 3.733 0.114
48.6197 3.872 0.116
48.6269 3.861 0.116
48.6340 3.729 0.114
48.6412 4.205 0.121
48.6483 3.896 0.116
48.6555 3.896 0.116
48.6626 3.799 0.115
48.6698 3.816 0.115
48.6769 3.892 0.116
48.6840 4.059 0.119
48.6912 3.979 0.118
48.6983 3.990 0.118
48.7055 3.941 0.117
48.7126 3.878 0.116
48.7198 3.990 0.118
48.7269 3.955 0.117
48.7341 3.878 0.116
48.7412 4.240 0.121
48.7484 3.997 0.118
48.7555 4.142 0.120
48.7626 3.955 0.117
48.7698 3.892 0.116
48.7769 4.212 0.121
48.7841 4.184 0.121
48.7912 4.247 0.121
48.7984 4.392 0.123
48.8055 4.573 0.126
48.8127 4.233 0.121
48.8198 4.063 0.119
48.8270 4.417 0.124
48.8341 4.365 0.123
48.8412 4.247 0.121
48.8484 4.493 0.125
48.8555 4.531 0.125
48.8627 4.667 0.127
48.8698 4.556 0.126
48.8770 4.625 0.127
48.8841 4.698 0.128
48.8913 4.500 0.125
48.8984 4.618 0.127
48.9056 4.993 0.132
48.9127 4.722 0.128
48.9198 5.059 0.133
48.9270 5.010 0.132
48.9341 5.059 0.133
48.9413 4.906 0.131
48.9484 5.052 0.132
48.9556 5.104 0.133
48.9627 4.962 0.131
48.9699 5.094 0.133
48.9770 5.080 0.133
48.9841 5.066 0.133
48.9913 4.938 0.131
48.9984 5.021 0.132
49.0056 5.163 0.134
49.0127 5.059 0.133
49.0199 4.854 0.130
49.0270 4.948 0.131
49.0342 4.896 0.130
49.0413 4.757 0.129
49.0485 4.611 0.127
49.0556 4.688 0.128
49.0627 4.517 0.125
49.0699 4.417 0.124
49.0770 4.493 0.125
49.0842 4.292 0.122
49.0913 4.493 0.125
49.0985 4.483 0.125
49.1056 4.406 0.124
49.1128 4.285 0.122
49.1199 4.184 0.121
49.1271 4.490 0.125
49.1342 4.142 0.120
49.1413 4.181 0.120
49.1485 4.063 0.119
49.1556 4.087 0.119
49.1628 4.285 0.122
49.1699 4.149 0.120
49.1771 4.236 0.121
49.1842 4.035 0.118
49.1914 4.111 0.119
49.1985 4.111 0.119
49.2056 4.247 0.121
49.2128 4.333 0.123
49.2199 4.160 0.120
49.2271 4.253 0.122
49.2342 4.323 0.123
49.2414 4.292 0.122
49.2485 4.375 0.123
49.2557 4.337 0.123
49.2628 4.198 0.121
49.2700 4.417 0.124
49.2771 4.427 0.124
49.2842 4.306 0.122
49.2914 4.389 0.123
49.2985 4.198 0.121
49.3057 4.122 0.120
49.3128 4.125 0.120
49.3200 4.139 0.120
49.3271 4.455 0.124
49.3343 4.052 0.119
49.3414 4.174 0.120
49.3486 4.201 0.121
49.3557 4.146 0.120
49.3628 4.056 0.119
49.3700 3.948 0.117
49.3771 4.038 0.118
49.3843 4.170 0.120
49.3914 4.014 0.118
49.3986 3.774 0.114
49.4057 3.868 0.116
49.4129 3.951 0.117
49.4200 3.813 0.115
49.4271 3.583 0.112
49.4343 3.823 0.115
49.4414 3.969 0.117
49.4486 3.865 0.116
49.4557 3.639 0.112
49.4629 3.646 0.113
49.4700 3.809 0.115
49.4772 3.965 0.117
49.4843 3.681 0.113
49.4915 3.688 0.113
49.4986 3.729 0.114
49.5057 3.722 0.114
49.5129 3.858 0.116
49.5200 3.750 0.114
49.5272 3.712 0.114
49.5343 3.615 0.112
49.5415 3.608 0.112
49.5486 3.795 0.115
49.5558 3.816 0.115
49.5629 3.743 0.114
49.5701 3.701 0.113
49.5772 3.576 0.111
49.5843 3.781 0.115
49.5915 3.646 0.113
49.5986 3.608 0.112
49.6058 3.764 0.114
49.6129 3.681 0.113
49.6201 3.698 0.113
49.6272 3.792 0.115
49.6344 3.729 0.114
49.6415 3.757 0.114
49.6486 3.667 0.113
49.6558 3.698 0.113
49.6629 3.833 0.115
49.6701 3.819 0.115
49.6772 3.826 0.115
49.6844 3.705 0.113
49.6915 3.740 0.114
49.6987 3.872 0.116
49.7058 3.708 0.113
49.7130 3.559 0.111
49.7201 3.792 0.115
49.7272 3.903 0.116
49.7344 3.729 0.114
49.7415 3.865 0.116
49.7487 3.979 0.118
49.7558 3.951 0.117
49.7630 3.951 0.117
49.7701 3.986 0.118
49.7773 3.972 0.117
49.7844 4.177 0.120
49.7916 4.028 0.118
49.7987 4.108 0.119
49.8058 4.024 0.118
49.8130 4.063 0.119
49.8201 4.229 0.121
49.8273 3.885 0.116
49.8344 4.396 0.124
49.8416 4.073 0.119
49.8487 4.253 0.122
49.8559 4.198 0.121
49.8630 4.215 0.121
49.8702 4.247 0.121
49.8773 4.493 0.125
49.8844 4.611 0.127
49.8916 4.396 0.124
49.8987 4.354 0.123
49.9059 4.625 0.127
49.9130 4.622 0.127
49.9202 4.521 0.125
49.9273 4.479 0.125
49.9345 4.722 0.128
49.9416 4.771 0.129
49.9487 4.986 0.132
49.9559 4.872 0.130
49.9630 4.938 0.131
49.9702 4.927 0.131
49.9773 5.014 0.132
49.9845 5.069 0.133
49.9916 5.333 0.136
49.9988 5.226 0.135
50.0059 5.010 0.132
50.0131 5.191 0.134
50.0202 5.351 0.136
50.0273 5.288 0.136
50.0345 5.212 0.135
50.0416 5.472 0.138
50.0488 5.149 0.134
50.0559 5.295 0.136
50.0631 5.580 0.139
50.0702 5.243 0.135
50.0774 5.299 0.136
50.0845 5.337 0.136
50.0917 5.170 0.134
50.0988 5.149 0.134
50.1059 5.080 0.133
50.1131 5.042 0.132
50.1202 5.038 0.132
50.1274 5.222 0.135
50.1345 5.007 0.132
50.1417 5.083 0.133
50.1488 5.142 0.134
50.1560 5.069 0.133
50.1631 4.941 0.131
50.1702 4.920 0.131
50.1774 5.198 0.134
50.1845 5.063 0.133
50.1917 5.212 0.135
50.1988 4.889 0.130
50.2060 5.160 0.134
50.2131 5.649 0.140
50.2203 5.410 0.137
50.2274 5.531 0.139
50.2346 5.483 0.138
50.2417 5.639 0.140
50.2488 5.688 0.141
50.2560 5.580 0.139
50.2631 5.778 0.142
50.2703 5.997 0.144
50.2774 6.069 0.145
50.2846 6.080 0.145
50.2917 6.528 0.151
50.2989 6.108 0.146
50.3060 6.434 0.149
50.3132 6.569 0.151
50.3203 6.677 0.152
50.3274 6.528 0.151
50.3346 7.215 0.158
50.3417 6.906 0.155
50.3489 6.781 0.153
50.3560 7.198 0.158
50.3632 7.354 0.160
50.3703 7.215 0.158
50.3775 7.344 0.160
50.3846 7.493 0.161
50.3917 7.521 0.162
50.3989 7.313 0.159
50.4060 7.229 0.158
50.4132 7.344 0.160
50.4203 7.010 0.156
50.4275 7.052 0.156
50.4346 6.771 0.153
50.4418 6.809 0.154
50.4489 6.927 0.155
50.4561 6.701 0.153
50.4632 6.635 0.152
50.4703 6.510 0.150
50.4775 6.521 0.150
50.4846 6.153 0.146
50.4918 6.278 0.148
50.4989 6.160 0.146
50.5061 6.056 0.145
50.5132 6.035 0.145
50.5204 6.017 0.145
50.5275 5.809 0.142
50.5347 6.014 0.145
50.5418 5.705 0.141
50.5489 5.694 0.141
50.5561 5.424 0.137
50.5632 5.208 0.134
50.5704 5.455 0.138
50.5775 5.653 0.140
50.5847 5.236 0.135
50.5918 5.611 0.140
50.5990 5.635 0.140
50.6061 5.552 0.139
50.6133 5.497 0.138
50.6204 5.403 0.137
50.6275 5.493 0.138
50.6347 5.479 0.138
50.6418 5.507 0.138
50.6490 5.521 0.138
50.6561 5.826 0.142
50.6633 5.809 0.142
50.6704 5.767 0.142
50.6776 5.799 0.142
50.6847 5.795 0.142
50.6918 5.837 0.142
50.6990 5.965 0.144
50.7061 5.892 0.143
50.7133 5.951 0.144
50.7204 5.913 0.143
50.7276 5.941 0.144
50.7347 5.594 0.139
50.7419 5.910 0.143
50.7490 5.490 0.138
50.7562 5.656 0.140
50.7633 5.510 0.138
50.7704 5.285 0.135
50.7776 5.340 0.136
50.7847 5.417 0.137
50.7919 5.010 0.132
50.7990 5.188 0.134
50.8062 4.983 0.132
50.8133 4.997 0.132
50.8205 4.927 0.131
50.8276 4.882 0.130
50.8348 4.670 0.127
50.8419 4.781 0.129
50.8490 4.816 0.129
50.8562 4.615 0.127
50.8633 4.604 0.126
50.8705 4.552 0.126
50.8776 4.351 0.123
50.8848 4.663 0.127
50.8919 4.451 0.124
50.8991 4.622 0.127
50.9062 4.253 0.122
50.9133 4.208 0.121
50.9205 4.406 0.124
50.9276 4.441 0.124
50.9348 4.458 0.124
50.9419 4.181 0.120
50.9491 4.267 0.122
50.9562 4.406 0.124
50.9634 4.382 0.123
50.9705 4.372 0.123
50.9777 4.479 0.125
50.9848 4.358 0.123
50.9919 4.427 0.124
50.9991 4.326 0.123
51.0062 4.472 0.125
51.0134 4.347 0.123
51.0205 4.444 0.124
51.0277 4.333 0.123
51.0348 4.490 0.125
51.0420 4.448 0.124
51.0491 4.330 0.123
51.0563 4.486 0.125
51.0634 4.302 0.122
51.0705 4.608 0.126
51.0777 4.611 0.127
51.0848 4.670 0.127
51.0920 4.528 0.125
51.0991 4.420 0.124
51.1063 4.451 0.124
51.1134 4.490 0.125
51.1206 4.167 0.120
51.1277 4.149 0.120
51.1348 4.424 0.124
51.1420 4.517 0.125
51.1491 4.535 0.125
51.1563 4.122 0.120
51.1634 4.420 0.124
51.1706 4.194 0.121
51.1777 4.295 0.122
51.1849 4.323 0.123
51.1920 4.306 0.122
51.1992 4.274 0.122
51.2063 4.243 0.121
51.2134 4.552 0.126
51.2206 4.417 0.124
51.2277 4.594 0.126
51.2349 4.549 0.126
51.2420 4.618 0.127
51.2492 4.507 0.125
51.2563 4.538 0.126
51.2635 4.538 0.126
51.2706 4.594 0.126
51.2778 4.823 0.129
51.2849 4.868 0.130
51.2920 4.458 0.124
51.2992 4.701 0.128
51.3063 4.705 0.128
51.3135 4.622 0.127
51.3206 4.778 0.129
51.3278 4.774 0.129
51.3349 4.688 0.128
51.3421 4.618 0.127
51.3492 4.753 0.128
51.3563 4.528 0.125
51.3635 4.476 0.125
51.3706 4.351 0.123
51.3778 4.278 0.122
51.3849 4.465 0.125
51.3921 4.299 0.122
51.3992 4.184 0.121
51.4064 4.184 0.121
51.4135 4.222 0.121
51.4207 4.215 0.121
51.4278 3.993 0.118
51.4349 4.087 0.119
51.4421 3.976 0.117
51.4492 3.896 0.116
51.4564 4.024 0.118
51.4635 4.177 0.120
51.4707 3.948 0.117
51.4778 3.809 0.115
51.4850 3.615 0.112
51.4921 3.858 0.116
51.4993 3.830 0.115
51.5064 3.778 0.115
51.5135 3.708 0.113
51.5207 3.865 0.116
51.5278 3.854 0.116
51.5350 4.076 0.119
51.5421 3.729 0.114
51.5493 4.066 0.119
51.5564 3.868 0.116
51.5636 3.653 0.113
51.5707 3.701 0.113
51.5779 3.729 0.114
51.5850 3.701 0.113
51.5921 3.986 0.118
51.5993 3.938 0.117
51.6064 4.142 0.120
51.6136 3.990 0.118
51.6207 3.903 0.116
51.6279 4.007 0.118
51.6350 3.924 0.117
51.6422 4.160 0.120
51.6493 3.840 0.115
51.6564 3.802 0.115
51.6636 3.920 0.117
51.6707 4.146 0.120
51.6779 3.875 0.116
51.6850 3.927 0.117
51.6922 4.063 0.119
51.6993 3.764 0.114
51.7065 3.670 0.113
51.7136 3.722 0.114
51.7208 3.889 0.116
51.7279 3.462 0.110
51.7350 3.753 0.114
51.7422 3.736 0.114
51.7493 3.590 0.112
51.7565 3.434 0.109
51.7636 3.378 0.108
51.7708 3.424 0.109
51.7779 3.590 0.112
51.7851 3.358 0.108
51.7922 3.611 0.112
51.7994 3.521 0.111
51.8065 3.288 0.107
51.8136 3.424 0.109
51.8208 3.444 0.109
51.8279 3.194 0.105
51.8351 3.240 0.106
51.8422 3.375 0.108
51.8494 3.479 0.110
51.8565 3.569 0.111
51.8637 3.677 0.113
51.8708 3.434 0.109
51.8779 3.413 0.109
51.8851 3.229 0.106
51.8922 3.313 0.107
51.8994 3.319 0.107
51.9065 3.549 0.111
51.9137 3.302 0.107
51.9208 3.552 0.111
51.9280 3.410 0.109
51.9351 3.413 0.109
51.9423 3.351 0.108
51.9494 3.354 0.108
51.9565 3.403 0.109
51.9637 3.434 0.109
51.9708 3.503 0.110
51.9780 3.344 0.108
51.9851 3.399 0.109
51.9923 3.531 0.111
51.9994 3.420 0.109
52.0066 3.309 0.107
52.0137 3.514 0.110
52.0209 3.240 0.106
52.0280 3.358 0.108
52.0351 3.465 0.110
52.0423 3.267 0.107
52.0494 3.476 0.110
52.0566 3.184 0.105
52.0637 3.344 0.108
52.0709 3.226 0.106
52.0780 3.219 0.106
52.0852 3.354 0.108
52.0923 3.375 0.108
52.0994 3.344 0.108
52.1066 3.191 0.105
52.1137 3.420 0.109
52.1209 3.389 0.108
52.1280 3.240 0.106
52.1352 3.212 0.106
52.1423 3.191 0.105
52.1495 3.323 0.107
52.1566 3.226 0.106
52.1638 3.438 0.109
52.1709 3.226 0.106
52.1780 3.292 0.107
52.1852 3.146 0.105
52.1923 3.240 0.106
52.1995 3.375 0.108
52.2066 3.524 0.111
52.2138 3.438 0.109
52.2209 3.444 0.109
52.2281 3.344 0.108
52.2352 3.299 0.107
52.2424 3.188 0.105
52.2495 3.337 0.108
52.2566 3.451 0.109
52.2638 3.333 0.108
52.2709 3.208 0.106
52.2781 3.483 0.110
52.2852 3.292 0.107
52.2924 3.361 0.108
52.2995 3.205 0.105
52.3067 3.240 0.106
52.3138 3.351 0.108
52.3210 3.233 0.106
52.3281 3.486 0.110
52.3352 3.226 0.106
52.3424 3.229 0.106
52.3495 3.319 0.107
52.3567 3.375 0.108
52.3638 3.372 0.108
52.3710 3.344 0.108
52.3781 3.292 0.107
52.3853 3.333 0.108
52.3924 3.208 0.106
52.3995 3.278 0.107
52.4067 3.285 0.107
52.4138 3.427 0.109
52.4210 3.167 0.105
52.4281 3.458 0.110
52.4353 3.233 0.106
52.4424 3.177 0.105
52.4496 3.458 0.110
52.4567 3.403 0.109
52.4639 3.378 0.108
52.4710 3.292 0.107
52.4781 3.392 0.109
52.4853 3.271 0.107
52.4924 3.431 0.109
52.4996 3.497 0.110
52.5067 3.372 0.108
52.5139 3.323 0.107
52.5210 3.448 0.109
52.5282 3.309 0.107
52.5353 3.344 0.108
52.5425 3.306 0.107
52.5496 3.208 0.106
52.5567 3.344 0.108
52.5639 3.538 0.111
52.5710 3.365 0.108
52.5782 3.434 0.109
52.5853 3.434 0.109
52.5925 3.469 0.110
52.5996 3.351 0.108
52.6068 3.472 0.110
52.6139 3.573 0.111
52.6210 3.333 0.108
52.6282 3.316 0.107
52.6353 3.497 0.110
52.6425 3.274 0.107
52.6496 3.295 0.107
52.6568 3.451 0.109
52.6639 3.392 0.109
52.6711 3.587 0.112
52.6782 3.503 0.110
52.6854 3.392 0.109
52.6925 3.358 0.108
52.6996 3.503 0.110
52.7068 3.656 0.113
52.7139 3.528 0.111
52.7211 3.444 0.109
52.7282 3.733 0.114
52.7354 3.729 0.114
52.7425 3.493 0.110
52.7497 3.663 0.113
52.7568 3.500 0.110
52.7640 3.559 0.111
52.7711 3.799 0.115
52.7782 3.344 0.108
52.7854 3.618 0.112
52.7925 3.417 0.109
52.7997 3.559 0.111
52.8068 3.656 0.113
52.8140 3.753 0.114
52.8211 3.628 0.112
52.8283 3.472 0.110
52.8354 3.576 0.111
52.8425 3.750 0.114
52.8497 3.719 0.114
52.8568 3.608 0.112
52.8640 3.705 0.113
