'Id: "" Comment: "" Operator: "Lab Manager" Anode: "Mo" Scantype: "Coupled TwoTheta/Theta" TimePerStep: "19.2" X: "9999" Y: "9999" Z: "9999" 
10.0000 0.000 2.058
10.0204 -2.021 2.021
10.0408 -2.422 1.985
10.0612 -0.078 2.012
10.0817 3.828 2.060
10.1021 0.338 2.012
10.1225 4.869 2.068
10.1429 3.568 2.049
10.1633 4.662 2.060
10.1837 0.444 2.003
10.2041 1.643 2.016
10.2246 1.696 2.014
10.2450 3.155 2.030
10.2654 0.709 1.996
10.2858 8.054 2.087
10.3062 6.910 2.070
10.3266 3.266 2.021
10.3471 3.320 2.019
10.3675 1.083 1.987
10.3879 5.096 2.036
10.4083 4.265 2.023
10.4287 2.497 1.997
10.4491 0.417 1.967
10.4695 1.878 1.983
10.4900 2.454 1.988
10.5104 -1.448 1.933
10.5308 5.222 2.019
10.5512 -2.222 1.917
10.5716 0.126 1.946
10.5920 6.016 2.021
10.6124 -0.647 1.930
10.6329 1.962 1.962
10.6533 -1.575 1.912
10.6737 2.753 1.967
10.6941 1.196 1.943
10.7145 -1.038 1.910
10.7349 -0.408 1.916
10.7553 0.066 1.919
10.7758 0.124 1.917
10.7962 2.110 1.941
10.8166 -0.957 1.897
10.8370 0.195 1.909
10.8574 -0.111 1.902
10.8778 -2.344 1.868
10.8983 -0.007 1.900
10.9187 -1.004 1.886
10.9391 -1.376 1.880
10.9595 0.753 1.909
10.9799 -1.181 1.881
11.0003 -0.562 1.889
11.0207 -1.871 1.871
11.0412 -0.627 1.887
11.0616 -0.685 1.886
11.0820 3.424 1.941
11.1024 -2.207 1.863
11.1228 -1.483 1.873
11.1432 -1.176 1.876
11.1636 -0.921 1.879
11.1841 0.688 1.901
11.2045 -0.827 1.879
11.2249 0.731 1.900
11.2453 1.768 1.914
11.2657 2.181 1.919
11.2861 -1.261 1.871
11.3065 3.058 1.929
11.3270 0.763 1.897
11.3474 2.322 1.918
11.3678 -1.796 1.860
11.3882 3.305 1.930
11.4086 -2.584 1.848
11.4290 -1.858 1.858
11.4495 0.157 1.885
11.4699 1.546 1.904
11.4903 -0.137 1.880
11.5107 -0.258 1.878
11.5311 0.768 1.892
11.5515 0.439 1.887
11.5719 2.194 1.910
11.5924 1.918 1.906
11.6128 0.080 1.880
11.6332 5.481 1.953
11.6536 3.591 1.927
11.6740 1.597 1.899
11.6944 4.134 1.933
11.7148 4.172 1.933
11.7353 4.574 1.938
11.7557 6.122 1.958
11.7761 4.650 1.938
11.7965 7.448 1.975
11.8169 6.862 1.967
11.8373 4.505 1.935
11.8577 2.668 1.909
11.8782 7.968 1.980
11.8986 2.278 1.903
11.9190 6.015 1.953
11.9394 3.763 1.922
11.9598 9.479 1.998
11.9802 6.811 1.962
12.0007 5.288 1.941
12.0211 9.860 2.001
12.0415 3.129 1.911
12.0619 10.201 2.004
12.0823 7.117 1.963
12.1027 8.720 1.984
12.1231 8.865 1.985
12.1436 7.344 1.965
12.1640 8.010 1.973
12.1844 9.719 1.995
12.2048 6.115 1.947
12.2252 7.980 1.971
12.2456 6.095 1.945
12.2660 9.835 1.994
12.2865 10.346 2.000
12.3069 7.524 1.963
12.3273 9.546 1.989
12.3477 9.433 1.987
12.3681 11.716 2.016
12.3885 5.457 1.933
12.4089 14.251 2.047
12.4294 11.065 2.006
12.4498 7.724 1.961
12.4702 9.591 1.985
12.4906 8.802 1.974
12.5110 9.055 1.977
12.5314 13.474 2.034
12.5519 11.905 2.013
12.5723 11.012 2.001
12.5927 13.870 2.037
12.6131 12.717 2.022
12.6335 10.367 1.991
12.6539 10.308 1.989
12.6743 15.667 2.058
12.6948 10.817 1.995
12.7152 15.186 2.051
12.7356 10.024 1.983
12.7560 14.394 2.039
12.7764 13.607 2.029
12.7968 14.488 2.039
12.8172 13.441 2.025
12.8377 17.863 2.081
12.8581 15.359 2.049
12.8785 14.625 2.039
12.8989 15.507 2.049
12.9193 13.055 2.017
12.9397 16.540 2.061
12.9601 13.828 2.026
12.9806 10.231 1.978
13.0010 18.457 2.083
13.0214 14.339 2.031
13.0418 14.857 2.037
13.0622 13.344 2.017
13.0826 11.206 1.988
13.1031 13.860 2.022
13.1235 16.410 2.054
13.1439 11.824 1.994
13.1643 15.885 2.046
13.1847 12.862 2.006
13.2051 11.871 1.993
13.2255 12.599 2.002
13.2460 13.483 2.012
13.2664 19.680 2.090
13.2868 14.888 2.029
13.3072 14.679 2.026
13.3276 15.980 2.042
13.3480 16.084 2.043
13.3684 17.074 2.054
13.3889 13.116 2.003
13.4093 13.949 2.013
13.4297 16.241 2.042
13.4501 15.825 2.036
13.4705 18.847 2.074
13.4909 15.515 2.031
13.5113 16.610 2.044
13.5318 14.944 2.022
13.5522 15.154 2.024
13.5726 13.281 1.999
13.5930 14.689 2.017
13.6134 18.806 2.068
13.6338 14.277 2.010
13.6543 14.019 2.006
13.6747 14.490 2.011
13.6951 16.055 2.031
13.7155 12.569 1.985
13.7359 12.415 1.982
13.7563 16.273 2.031
13.7767 11.224 1.965
13.7972 15.395 2.019
13.8176 14.513 2.006
13.8380 15.403 2.017
13.8584 15.876 2.023
13.8788 18.015 2.049
13.8992 15.989 2.023
13.9196 13.077 1.984
13.9401 14.592 2.003
13.9605 16.420 2.026
13.9809 12.884 1.979
14.0013 15.806 2.017
14.0217 13.155 1.981
14.0421 12.588 1.973
14.0625 15.980 2.017
14.0830 13.903 1.989
14.1034 16.149 2.017
14.1238 12.718 1.972
14.1442 9.860 1.933
14.1646 11.950 1.960
14.1850 12.374 1.965
14.2055 13.735 1.982
14.2259 11.399 1.950
14.2463 10.938 1.943
14.2667 9.279 1.920
14.2871 11.058 1.943
14.3075 12.472 1.961
14.3279 9.772 1.924
14.3484 14.103 1.981
14.3688 11.039 1.940
14.3892 12.454 1.958
14.4096 11.943 1.950
14.4300 10.962 1.936
14.4504 9.565 1.916
14.4708 10.200 1.924
14.4913 7.397 1.885
14.5117 12.720 1.956
14.5321 5.699 1.860
14.5525 11.074 1.933
14.5729 7.230 1.879
14.5933 6.303 1.866
14.6138 12.356 1.947
14.6342 11.846 1.940
14.6546 10.815 1.925
14.6750 11.295 1.931
14.6954 9.744 1.909
14.7158 6.058 1.857
14.7362 9.299 1.901
14.7567 8.634 1.891
14.7771 6.980 1.867
14.7975 11.159 1.924
14.8179 9.349 1.898
14.8383 3.528 1.815
14.8587 5.520 1.843
14.8791 5.690 1.844
14.8996 8.724 1.886
14.9200 5.352 1.838
14.9404 10.314 1.906
14.9608 6.161 1.847
14.9812 5.081 1.831
15.0016 8.064 1.872
15.0220 7.193 1.859
15.0425 5.802 1.838
15.0629 3.264 1.801
15.0833 6.665 1.849
15.1037 5.326 1.829
15.1241 4.456 1.815
15.1445 2.128 1.781
15.1650 4.904 1.820
15.1854 5.909 1.833
15.2058 5.248 1.823
15.2262 7.348 1.852
15.2466 2.520 1.782
15.2670 7.224 1.848
15.2874 4.793 1.812
15.3079 6.373 1.834
15.3283 6.338 1.833
15.3487 2.345 1.774
15.3691 4.810 1.809
15.3895 3.421 1.788
15.4099 1.877 1.764
15.4303 4.968 1.808
15.4508 3.059 1.779
15.4712 4.223 1.795
15.4916 0.752 1.743
15.5120 0.875 1.744
15.5324 3.550 1.782
15.5528 3.517 1.781
15.5732 -0.214 1.724
15.5937 1.577 1.750
15.6141 2.950 1.769
15.6345 2.710 1.765
15.6549 3.511 1.775
15.6753 4.417 1.788
15.6957 -0.459 1.714
15.7162 2.218 1.753
15.7366 0.676 1.729
15.7570 2.520 1.755
15.7774 4.780 1.788
15.7978 0.948 1.730
15.8182 2.219 1.748
15.8386 2.397 1.749
15.8591 2.835 1.755
15.8795 3.534 1.764
15.8999 3.504 1.762
15.9203 -2.671 1.667
15.9407 5.320 1.787
15.9611 0.291 1.711
15.9815 -3.437 1.652
16.0020 1.430 1.726
16.0224 0.099 1.704
16.0428 -2.169 1.668
16.0632 1.552 1.724
16.0836 -0.351 1.694
16.1040 1.704 1.724
16.1244 3.135 1.745
16.1449 -0.695 1.685
16.1653 5.892 1.783
16.1857 1.177 1.712
16.2061 0.889 1.706
16.2265 1.591 1.716
16.2469 1.564 1.714
16.2674 -0.754 1.677
16.2878 1.303 1.708
16.3082 -0.390 1.680
16.3286 -2.812 1.641
16.3490 0.403 1.691
16.3694 0.234 1.688
16.3898 1.575 1.708
16.4103 1.562 1.707
16.4307 4.258 1.747
16.4511 0.235 1.685
16.4715 3.764 1.738
16.4919 3.335 1.731
16.5123 4.625 1.750
16.5327 7.322 1.789
16.5532 6.164 1.772
16.5736 10.476 1.833
16.5940 12.652 1.863
16.6144 17.901 1.935
16.6348 17.474 1.928
16.6552 12.463 1.859
16.6756 6.411 1.772
16.6961 8.900 1.807
16.7165 9.151 1.810
16.7369 8.411 1.799
16.7573 4.131 1.735
16.7777 3.652 1.727
16.7981 4.320 1.737
16.8186 2.383 1.707
16.8390 0.968 1.684
16.8594 2.626 1.709
16.8798 2.409 1.705
16.9002 5.421 1.750
16.9206 1.715 1.693
16.9410 1.706 1.693
16.9615 0.188 1.668
16.9819 2.524 1.704
17.0023 0.485 1.672
17.0227 1.206 1.682
17.0431 2.032 1.694
17.0635 1.192 1.680
17.0839 -2.044 1.629
17.1044 1.282 1.680
17.1248 0.807 1.672
17.1452 1.894 1.688
17.1656 1.627 1.684
17.1860 5.632 1.744
17.2064 2.449 1.695
17.2268 2.391 1.693
17.2473 5.719 1.743
17.2677 7.536 1.769
17.2881 7.062 1.762
17.3085 9.453 1.796
17.3289 13.459 1.852
17.3493 12.100 1.833
17.3698 14.543 1.866
17.3902 11.987 1.830
17.4106 12.139 1.831
17.4310 9.583 1.794
17.4514 14.163 1.858
17.4718 11.399 1.818
17.4922 7.437 1.760
17.5127 7.850 1.765
17.5331 5.504 1.730
17.5535 6.334 1.741
17.5739 4.508 1.713
17.5943 5.391 1.726
17.6147 2.472 1.680
17.6351 4.762 1.715
17.6556 0.229 1.644
17.6760 3.873 1.700
17.6964 2.361 1.676
17.7168 3.297 1.689
17.7372 2.879 1.682
17.7576 6.107 1.731
17.7780 4.439 1.704
17.7985 0.949 1.649
17.8189 5.532 1.720
17.8393 2.563 1.673
17.8597 2.771 1.676
17.8801 3.396 1.684
17.9005 3.500 1.685
17.9210 4.230 1.696
17.9414 0.376 1.635
17.9618 5.742 1.717
17.9822 3.399 1.680
18.0026 4.650 1.699
18.0230 5.224 1.707
18.0434 5.017 1.703
18.0639 3.352 1.676
18.0843 4.239 1.689
18.1047 7.627 1.740
18.1251 1.952 1.652
18.1455 2.944 1.667
18.1659 2.321 1.656
18.1863 4.824 1.694
18.2068 1.545 1.642
18.2272 2.486 1.656
18.2476 2.645 1.658
18.2680 2.284 1.651
18.2884 3.173 1.664
18.3088 4.219 1.680
18.3292 4.900 1.689
18.3497 5.789 1.702
18.3701 0.741 1.622
18.3905 3.871 1.671
18.4109 3.251 1.660
18.4313 3.516 1.663
18.4517 5.448 1.693
18.4722 6.182 1.703
18.4926 3.479 1.660
18.5130 4.318 1.672
18.5334 1.564 1.628
18.5538 1.570 1.627
18.5742 7.305 1.716
18.5946 3.144 1.650
18.6151 2.630 1.641
18.6355 5.345 1.683
18.6559 7.018 1.708
18.6763 2.390 1.635
18.6967 5.158 1.677
18.7171 5.478 1.681
18.7375 5.120 1.675
18.7580 4.920 1.671
18.7784 1.751 1.620
18.7988 7.123 1.703
18.8192 2.600 1.631
18.8396 2.452 1.628
18.8600 6.576 1.692
18.8804 4.814 1.663
18.9009 1.958 1.617
18.9213 5.665 1.675
18.9417 1.976 1.615
18.9621 5.528 1.671
18.9825 5.485 1.669
19.0029 2.839 1.626
19.0234 5.245 1.663
19.0438 4.630 1.653
19.0642 3.026 1.626
19.0846 0.953 1.592
19.1050 5.912 1.670
19.1254 3.891 1.637
19.1458 1.038 1.590
19.1663 2.768 1.617
19.1867 3.561 1.629
19.2071 2.531 1.611
19.2275 1.188 1.588
19.2479 2.919 1.615
19.2683 4.181 1.635
19.2887 1.589 1.592
19.3092 4.258 1.634
19.3296 5.261 1.649
19.3500 1.628 1.589
19.3704 1.432 1.585
19.3908 3.216 1.613
19.4112 5.001 1.640
19.4316 2.462 1.599
19.4521 0.289 1.562
19.4725 5.719 1.649
19.4929 2.973 1.604
19.5133 2.675 1.598
19.5337 3.991 1.618
19.5541 1.871 1.582
19.5746 5.688 1.643
19.5950 2.786 1.595
19.6154 3.947 1.613
19.6358 6.046 1.645
19.6562 3.301 1.600
19.6766 2.171 1.581
19.6970 4.062 1.610
19.7175 6.422 1.647
19.7379 3.261 1.595
19.7583 2.132 1.575
19.7787 6.992 1.653
19.7991 5.551 1.629
19.8195 6.349 1.640
19.8399 5.637 1.628
19.8604 6.956 1.648
19.8808 7.339 1.653
19.9012 8.138 1.664
19.9216 10.343 1.697
19.9420 15.569 1.775
19.9624 20.692 1.847
19.9828 26.023 1.920
20.0033 41.562 2.119
20.0237 42.154 2.126
20.0441 32.329 2.001
20.0645 30.890 1.981
20.0849 27.524 1.936
20.1053 24.575 1.894
20.1258 35.480 2.038
20.1462 40.708 2.103
20.1666 43.176 2.132
20.1870 41.686 2.113
20.2074 44.779 2.150
20.2278 31.623 1.983
20.2482 40.185 2.092
20.2687 32.915 1.998
20.2891 32.155 1.987
20.3095 27.957 1.931
20.3299 18.812 1.802
20.3503 17.375 1.780
20.3707 20.626 1.826
20.3911 9.867 1.664
20.4116 10.619 1.675
20.4320 6.631 1.610
20.4524 3.789 1.562
20.4728 4.072 1.566
20.4932 2.116 1.532
20.5136 0.785 1.508
20.5340 2.735 1.540
20.5545 1.821 1.523
20.5749 1.845 1.522
20.5953 0.462 1.497
20.6157 0.434 1.495
20.6361 -0.792 1.472
20.6565 1.785 1.516
20.6770 1.184 1.504
20.6974 0.167 1.485
20.7178 1.494 1.507
20.7382 1.519 1.506
20.7586 0.868 1.493
20.7790 1.518 1.503
20.7994 -0.748 1.462
20.8199 -0.983 1.456
20.8403 0.658 1.484
20.8607 2.299 1.511
20.8811 0.815 1.484
20.9015 2.143 1.506
20.9219 0.191 1.470
20.9423 -1.241 1.443
20.9628 -0.016 1.464
20.9832 0.532 1.472
21.0036 -1.471 1.435
21.0240 0.483 1.469
21.0444 0.615 1.469
21.0648 -1.805 1.424
21.0852 1.088 1.475
21.1057 -1.748 1.423
21.1261 2.655 1.500
21.1465 0.705 1.464
21.1669 0.629 1.461
21.1873 0.450 1.456
21.2077 -2.489 1.401
21.2282 -0.064 1.444
21.2486 -1.233 1.422
21.2690 -0.422 1.435
21.2894 1.379 1.466
21.3098 1.201 1.461
21.3302 -0.123 1.436
21.3506 -0.040 1.436
21.3711 -0.583 1.424
21.3915 -0.291 1.428
21.4119 0.417 1.440
21.4323 -0.906 1.414
21.4527 -0.927 1.412
21.4731 1.136 1.448
21.4935 -0.551 1.416
21.5140 0.262 1.429
21.5344 1.492 1.450
21.5548 0.483 1.430
21.5752 0.984 1.438
21.5956 -0.911 1.401
21.6160 2.039 1.454
21.6364 2.593 1.462
21.6569 -0.187 1.410
21.6773 0.211 1.416
21.6977 1.390 1.436
21.7181 1.476 1.436
21.7385 3.125 1.464
21.7589 4.044 1.479
21.7794 7.099 1.530
21.7998 4.530 1.484
21.8202 6.752 1.521
21.8406 5.693 1.501
21.8610 1.769 1.430
21.8814 4.669 1.480
21.9018 7.048 1.520
21.9223 6.875 1.516
21.9427 3.213 1.450
21.9631 2.207 1.430
21.9835 1.201 1.410
22.0039 5.092 1.479
22.0243 2.420 1.429
22.0447 1.571 1.412
22.0652 -1.101 1.360
22.0856 1.228 1.402
22.1060 0.223 1.382
22.1264 1.927 1.412
22.1468 3.527 1.440
22.1672 -1.383 1.346
22.1876 -1.345 1.345
22.2081 -0.490 1.360
22.2285 0.626 1.380
22.2489 -1.071 1.346
22.2693 -0.632 1.353
22.2897 -0.766 1.349
22.3101 0.142 1.365
22.3306 -0.825 1.345
22.3510 2.323 1.403
22.3714 -0.362 1.351
22.3918 -2.265 1.312
22.4122 0.372 1.363
22.4326 0.457 1.364
22.4530 2.417 1.400
22.4735 0.888 1.371
22.4939 1.755 1.387
22.5143 0.799 1.368
22.5347 0.364 1.359
22.5551 2.377 1.397
22.5755 -0.245 1.346
22.5959 0.259 1.355
22.6164 1.595 1.380
22.6368 -0.141 1.346
22.6572 1.040 1.368
22.6776 0.711 1.361
22.6980 -1.598 1.316
22.7184 0.105 1.348
22.7388 0.974 1.364
22.7593 0.697 1.358
22.7797 -0.725 1.330
22.8001 -0.481 1.334
22.8205 0.806 1.358
22.8409 0.634 1.354
22.8613 0.879 1.358
22.8818 3.729 1.411
22.9022 -2.016 1.300
22.9226 0.834 1.355
22.9430 0.872 1.355
22.9634 -3.049 1.277
22.9838 -0.199 1.333
23.0042 3.798 1.408
23.0247 0.294 1.341
23.0451 2.260 1.378
23.0655 -1.087 1.312
23.0859 -1.517 1.303
23.1063 2.220 1.375
23.1267 0.644 1.344
23.1471 2.298 1.375
23.1676 1.296 1.355
23.1880 0.867 1.346
23.2084 0.021 1.329
23.2288 0.530 1.338
23.2492 1.716 1.360
23.2696 0.819 1.342
23.2901 -2.942 1.266
23.3105 -0.775 1.309
23.3309 2.903 1.380
23.3513 0.175 1.327
23.3717 -1.459 1.294
23.3921 1.074 1.343
23.4125 0.795 1.337
23.4330 1.140 1.343
23.4534 2.372 1.366
23.4738 -0.980 1.300
23.4942 0.460 1.328
23.5146 -0.392 1.310
23.5350 1.465 1.346
23.5554 2.021 1.356
23.5759 -0.549 1.305
23.5963 0.735 1.330
23.6167 0.041 1.316
23.6371 0.857 1.331
23.6575 1.101 1.335
23.6779 0.303 1.319
23.6983 -0.339 1.305
23.7188 1.885 1.348
23.7392 0.410 1.319
23.7596 -1.273 1.284
23.7800 1.160 1.332
23.8004 0.154 1.311
23.8208 1.805 1.343
23.8413 0.071 1.308
23.8617 -2.652 1.252
23.8821 1.500 1.335
23.9025 1.485 1.334
23.9229 -0.821 1.287
23.9433 1.404 1.331
23.9637 0.765 1.318
23.9842 -2.062 1.260
24.0046 0.112 1.303
24.0250 2.182 1.343
24.0454 1.856 1.336
24.0658 1.530 1.329
24.0862 -0.098 1.296
24.1066 -0.423 1.288
24.1271 2.220 1.340
24.1475 0.332 1.302
24.1679 0.789 1.310
24.1883 1.401 1.322
24.2087 1.702 1.327
24.2291 -0.081 1.291
24.2495 0.272 1.297
24.2700 3.177 1.353
24.2904 1.135 1.312
24.3108 -0.491 1.279
24.3312 0.956 1.307
24.3516 0.998 1.307
24.3720 0.414 1.295
24.3925 -0.221 1.281
24.4129 0.862 1.302
24.4333 1.737 1.319
24.4537 -1.554 1.251
24.4741 3.645 1.354
24.4945 -2.927 1.220
24.5149 1.178 1.304
24.5354 0.387 1.287
24.5558 -0.924 1.260
24.5762 0.630 1.291
24.5966 -0.629 1.264
24.6170 -1.731 1.240
24.6374 1.230 1.300
24.6578 2.211 1.319
24.6783 0.536 1.284
24.6987 0.737 1.287
24.7191 -1.823 1.234
24.7395 -0.693 1.256
24.7599 -0.345 1.263
24.7803 -0.882 1.251
24.8007 0.248 1.274
24.8212 1.430 1.297
24.8416 0.946 1.286
24.8620 1.295 1.293
24.8824 1.436 1.295
24.9028 2.150 1.308
24.9232 1.822 1.301
24.9437 0.037 1.264
24.9641 0.647 1.276
24.9845 1.102 1.284
25.0049 2.494 1.311
25.0253 -0.541 1.249
25.0457 0.435 1.268
25.0661 -2.443 1.207
25.0866 0.668 1.272
25.1070 -0.231 1.252
25.1274 1.840 1.294
25.1478 2.347 1.303
25.1682 1.918 1.294
25.1886 2.010 1.295
25.2090 -0.711 1.238
25.2295 1.933 1.292
25.2499 2.546 1.303
25.2703 -0.591 1.238
25.2907 1.168 1.274
25.3111 1.365 1.277
25.3315 0.937 1.267
25.3519 -0.689 1.233
25.3724 -1.220 1.220
25.3928 -1.279 1.219
25.4132 1.528 1.278
25.4336 2.043 1.288
25.4540 -1.192 1.221
25.4744 -1.406 1.217
25.4949 1.242 1.273
25.5153 1.286 1.274
25.5357 -1.586 1.214
25.5561 0.230 1.252
25.5765 0.535 1.259
25.5969 1.205 1.273
25.6173 1.406 1.277
25.6378 0.670 1.262
25.6582 0.507 1.259
25.6786 -0.749 1.233
25.6990 0.026 1.249
25.7194 1.061 1.270
25.7398 1.680 1.283
25.7602 -0.096 1.247
25.7807 0.940 1.268
25.8011 0.622 1.262
25.8215 1.607 1.282
25.8419 2.904 1.308
25.8623 4.357 1.337
25.8827 2.582 1.302
25.9031 1.848 1.287
25.9236 2.417 1.299
25.9440 3.975 1.330
25.9644 5.742 1.364
25.9848 4.228 1.335
26.0052 10.422 1.451
26.0256 7.867 1.404
26.0461 10.676 1.456
26.0665 7.600 1.399
26.0869 6.295 1.375
26.1073 4.730 1.345
26.1277 6.550 1.380
26.1481 5.298 1.356
26.1685 5.973 1.369
26.1890 3.471 1.321
26.2094 6.907 1.387
26.2298 2.634 1.304
26.2502 2.737 1.306
26.2706 2.996 1.311
26.2910 1.693 1.285
26.3114 2.421 1.300
26.3319 3.202 1.316
26.3523 3.253 1.317
26.3727 3.982 1.331
26.3931 2.159 1.295
26.4135 1.899 1.290
26.4339 1.378 1.279
26.4543 2.993 1.311
26.4748 1.900 1.290
26.4952 3.255 1.317
26.5156 2.839 1.308
26.5360 4.403 1.339
26.5564 5.289 1.356
26.5768 6.176 1.373
26.5973 9.511 1.435
26.6177 9.461 1.434
26.6381 8.629 1.419
26.6585 12.850 1.494
26.6789 7.280 1.394
26.6993 9.157 1.428
26.7197 11.087 1.463
26.7402 6.663 1.382
26.7606 10.781 1.457
26.7810 15.419 1.538
26.8014 13.079 1.498
26.8218 12.145 1.481
26.8422 12.878 1.494
26.8626 12.830 1.493
26.8831 16.271 1.552
26.9035 13.307 1.501
26.9239 14.614 1.524
26.9443 15.243 1.534
26.9647 17.696 1.575
26.9851 16.764 1.560
27.0055 17.550 1.573
27.0260 16.930 1.562
27.0464 16.051 1.548
27.0668 17.619 1.574
27.0872 18.458 1.587
27.1076 17.527 1.572
27.1280 15.918 1.545
27.1485 18.685 1.591
27.1689 16.713 1.558
27.1893 16.615 1.556
27.2097 17.091 1.564
27.2301 14.494 1.520
27.2505 17.574 1.572
27.2709 19.457 1.603
27.2914 14.256 1.516
27.3118 14.629 1.522
27.3322 13.335 1.500
27.3526 16.208 1.549
27.3730 12.935 1.492
27.3934 12.839 1.491
27.4138 12.431 1.483
27.4343 11.190 1.461
27.4547 13.231 1.497
27.4751 12.615 1.486
27.4955 7.052 1.385
27.5159 7.634 1.396
27.5363 9.832 1.436
27.5567 8.175 1.405
27.5772 8.498 1.411
27.5976 3.404 1.313
27.6180 3.883 1.323
27.6384 5.509 1.354
27.6588 2.291 1.291
27.6792 4.073 1.326
27.6997 4.240 1.329
27.7201 2.585 1.296
27.7405 2.076 1.285
27.7609 2.765 1.299
27.7813 -0.036 1.241
27.8017 2.268 1.288
27.8221 1.499 1.273
27.8426 1.824 1.279
27.8630 0.379 1.249
27.8834 0.860 1.259
27.9038 1.915 1.280
27.9242 0.626 1.253
27.9446 0.796 1.256
27.9650 0.132 1.242
27.9855 0.355 1.247
28.0059 -1.038 1.217
28.0263 0.435 1.248
28.0467 1.074 1.261
28.0671 1.505 1.269
28.0875 1.572 1.270
28.1079 0.806 1.254
28.1284 -0.221 1.233
28.1488 0.992 1.258
28.1692 1.685 1.272
28.1896 0.294 1.242
28.2100 1.091 1.259
28.2304 4.441 1.326
28.2509 3.155 1.300
28.2713 2.650 1.290
28.2917 3.396 1.304
28.3121 7.631 1.386
28.3325 9.888 1.427
28.3529 10.478 1.438
28.3733 13.620 1.493
28.3938 12.283 1.469
28.4142 10.947 1.445
28.4346 9.141 1.412
28.4550 5.253 1.338
28.4754 9.594 1.420
28.4958 10.706 1.440
28.5162 17.756 1.562
28.5367 20.379 1.604
28.5571 24.043 1.663
28.5775 19.791 1.594
28.5979 15.488 1.522
28.6183 11.705 1.456
28.6387 13.808 1.492
28.6591 26.119 1.693
28.6796 38.379 1.872
28.7000 42.566 1.929
28.7204 36.648 1.847
28.7408 29.846 1.748
28.7612 25.700 1.685
28.7816 12.231 1.462
28.8021 10.950 1.439
28.8225 6.596 1.357
28.8429 14.430 1.500
28.8633 19.764 1.589
28.8837 18.327 1.565
28.9041 15.016 1.509
28.9245 13.111 1.475
28.9450 7.300 1.368
28.9654 4.614 1.316
28.9858 3.126 1.285
29.0062 2.055 1.263
29.0266 1.505 1.251
29.0470 0.539 1.230
29.0674 0.926 1.238
29.0879 2.148 1.263
29.1083 3.526 1.291
29.1287 0.893 1.236
29.1491 3.053 1.280
29.1695 -0.308 1.209
29.1899 -0.753 1.199
29.2103 1.511 1.247
29.2308 0.130 1.217
29.2512 -0.210 1.209
29.2716 4.138 1.299
29.2920 0.309 1.219
29.3124 -0.603 1.199
29.3328 0.465 1.221
29.3533 -1.697 1.174
29.3737 2.339 1.260
29.3941 -0.603 1.197
29.4145 2.184 1.255
29.4349 -1.905 1.167
29.4553 1.195 1.234
29.4757 1.535 1.240
29.4962 -0.001 1.207
29.5166 -1.588 1.172
29.5370 0.031 1.207
29.5574 2.484 1.259
29.5778 -0.011 1.206
29.5982 2.494 1.259
29.6186 0.259 1.211
29.6391 0.161 1.209
29.6595 0.427 1.215
29.6799 2.308 1.254
29.7003 0.074 1.207
29.7207 3.310 1.275
29.7411 1.076 1.228
29.7615 2.385 1.255
29.7820 2.079 1.249
29.8024 4.430 1.297
29.8228 5.114 1.310
29.8432 5.747 1.323
29.8636 9.087 1.387
29.8840 9.355 1.392
29.9045 8.061 1.367
29.9249 7.600 1.358
29.9453 4.379 1.295
29.9657 3.190 1.270
29.9861 3.823 1.283
30.0065 4.822 1.303
30.0269 3.737 1.281
30.0474 3.538 1.277
30.0678 4.693 1.300
30.0882 3.400 1.274
30.1086 6.170 1.329
30.1290 0.399 1.210
30.1494 1.086 1.225
30.1698 0.367 1.209
30.1903 0.742 1.217
30.2107 0.596 1.214
30.2311 2.169 1.247
30.2515 1.034 1.223
30.2719 0.160 1.204
30.2923 -0.141 1.197
30.3127 -1.640 1.163
30.3332 0.194 1.204
30.3536 2.497 1.252
30.3740 0.946 1.219
30.3944 1.999 1.241
30.4148 1.386 1.228
30.4352 -0.164 1.195
30.4557 2.140 1.243
30.4761 0.798 1.215
30.4965 1.905 1.238
30.5169 -1.624 1.161
30.5373 0.316 1.204
30.5577 1.215 1.223
30.5781 1.124 1.220
30.5986 0.096 1.198
30.6190 0.422 1.205
30.6394 0.592 1.208
30.6598 1.700 1.231
30.6802 2.964 1.258
30.7006 0.583 1.207
30.7210 1.900 1.235
30.7415 1.654 1.229
30.7619 1.253 1.220
30.7823 2.674 1.250
30.8027 1.231 1.219
30.8231 2.236 1.240
30.8435 3.866 1.274
30.8639 1.643 1.227
30.8844 1.919 1.233
30.9048 -0.096 1.189
30.9252 3.098 1.256
30.9456 5.146 1.298
30.9660 2.402 1.241
30.9864 6.013 1.315
31.0069 3.738 1.268
31.0273 3.964 1.273
31.0477 4.398 1.281
31.0681 4.155 1.276
31.0885 4.277 1.278
31.1089 1.743 1.225
31.1293 5.303 1.298
31.1498 6.051 1.312
31.1702 3.049 1.251
31.1906 4.890 1.288
31.2110 5.118 1.293
31.2314 4.095 1.272
31.2518 4.114 1.272
31.2722 4.498 1.279
31.2927 7.070 1.330
31.3131 6.986 1.328
31.3335 4.662 1.281
31.3539 3.484 1.256
31.3743 5.119 1.290
31.3947 3.838 1.263
31.4152 5.421 1.295
31.4356 6.484 1.316
31.4560 4.734 1.280
31.4764 3.505 1.254
31.4968 4.568 1.276
31.5172 3.496 1.253
31.5376 5.966 1.303
31.5581 3.228 1.247
31.5785 5.385 1.291
31.5989 4.626 1.275
31.6193 4.961 1.281
31.6397 5.557 1.293
31.6601 2.767 1.235
31.6805 2.270 1.224
31.7010 3.439 1.248
31.7214 2.420 1.226
31.7418 4.684 1.273
31.7622 3.926 1.256
31.7826 1.867 1.213
31.8030 3.245 1.241
31.8234 3.009 1.236
31.8439 0.273 1.176
31.8643 2.277 1.219
31.8847 2.250 1.218
31.9051 0.608 1.182
31.9255 1.571 1.202
31.9459 2.169 1.215
31.9664 1.049 1.190
31.9868 0.502 1.177
32.0072 2.976 1.230
32.0276 -0.957 1.143
32.0480 -1.139 1.139
32.0684 0.620 1.179
32.0888 0.607 1.179
32.1093 0.283 1.172
32.1297 -0.406 1.156
32.1501 0.520 1.177
32.1705 0.196 1.170
32.1909 1.174 1.192
32.2113 -0.608 1.153
32.2317 -0.255 1.161
32.2522 1.505 1.200
32.2726 1.703 1.205
32.2930 1.901 1.209
32.3134 0.693 1.183
32.3338 2.037 1.213
32.3542 3.121 1.236
32.3746 -1.160 1.142
32.3951 -0.701 1.153
32.4155 1.529 1.202
32.4359 0.114 1.172
32.4563 0.574 1.182
32.4767 2.284 1.219
32.4971 0.817 1.188
32.5176 1.329 1.199
32.5380 -0.294 1.163
32.5584 1.625 1.206
32.5788 3.544 1.247
32.5992 2.286 1.220
32.6196 0.716 1.187
32.6400 -0.125 1.168
32.6605 1.118 1.196
32.6809 -1.128 1.146
32.7013 2.406 1.224
32.7217 1.098 1.196
32.7421 0.362 1.180
32.7625 -0.947 1.151
32.7829 1.495 1.205
32.8034 -0.438 1.162
32.8238 3.098 1.239
32.8442 2.207 1.220
32.8646 -0.299 1.166
32.8850 -0.356 1.165
32.9054 0.420 1.182
32.9258 0.624 1.187
32.9463 0.619 1.187
32.9667 1.239 1.200
32.9871 1.079 1.197
33.0075 0.085 1.175
33.0279 -0.596 1.160
33.0483 2.421 1.226
33.0688 0.594 1.187
33.0892 1.216 1.200
33.1096 -0.506 1.162
33.1300 -0.457 1.163
33.1504 3.082 1.240
33.1708 3.027 1.239
33.1912 2.035 1.218
33.2117 2.918 1.237
33.2321 3.592 1.251
33.2525 4.163 1.263
33.2729 4.109 1.262
33.2933 2.024 1.218
33.3137 1.762 1.213
33.3341 4.053 1.261
33.3546 3.895 1.258
33.3750 4.676 1.274
33.3954 4.883 1.278
33.4158 2.539 1.229
33.4362 6.445 1.309
33.4566 4.309 1.266
33.4770 3.111 1.241
33.4975 3.892 1.258
33.5179 4.101 1.262
33.5383 6.028 1.301
33.5587 4.571 1.272
33.5791 5.353 1.287
33.5995 5.510 1.291
33.6200 3.428 1.248
33.6404 4.002 1.260
33.6608 8.431 1.348
33.6812 5.620 1.293
33.7016 9.424 1.367
33.7220 14.999 1.469
33.7424 27.241 1.672
33.7629 41.879 1.887
33.7833 48.183 1.972
33.8037 46.572 1.950
33.8241 39.908 1.859
33.8445 25.849 1.650
33.8649 13.352 1.440
33.8853 10.230 1.382
33.9058 6.797 1.316
33.9262 6.436 1.308
33.9466 12.742 1.428
33.9670 18.059 1.522
33.9874 21.761 1.584
34.0078 26.766 1.664
34.0282 18.750 1.534
34.0487 12.348 1.421
34.0691 7.978 1.338
34.0895 3.765 1.253
34.1099 3.406 1.246
34.1303 1.953 1.215
34.1507 1.074 1.196
34.1712 0.819 1.190
34.1916 2.492 1.226
34.2120 -1.408 1.140
34.2324 1.203 1.198
34.2528 -0.613 1.158
34.2732 -0.398 1.162
34.2936 -0.495 1.160
34.3141 0.241 1.176
34.3345 0.509 1.182
34.3549 -1.306 1.141
34.3753 0.212 1.175
34.3957 3.085 1.237
34.4161 0.176 1.174
34.4365 0.810 1.188
34.4570 -0.067 1.168
34.4774 0.046 1.170
34.4978 1.669 1.206
34.5182 -0.770 1.152
34.5386 1.167 1.195
34.5590 0.916 1.189
34.5794 -0.064 1.167
34.5999 1.560 1.202
34.6203 -0.565 1.155
34.6407 -0.087 1.166
34.6611 -0.857 1.148
34.6815 1.653 1.204
34.7019 1.351 1.197
34.7224 -0.044 1.166
34.7428 1.009 1.189
34.7632 0.707 1.182
34.7836 0.042 1.167
34.8040 0.730 1.182
34.8244 2.617 1.223
34.8448 2.733 1.225
34.8653 2.797 1.226
34.8857 1.820 1.205
34.9061 2.301 1.215
34.9265 3.981 1.250
34.9469 0.868 1.183
34.9673 1.194 1.190
34.9877 1.884 1.205
35.0082 2.679 1.221
35.0286 3.942 1.248
35.0490 2.602 1.219
35.0694 5.480 1.279
35.0898 5.963 1.288
35.1102 6.602 1.301
35.1306 8.284 1.334
35.1511 4.236 1.252
35.1715 3.000 1.226
35.1919 2.443 1.214
35.2123 2.197 1.208
35.2327 1.588 1.195
35.2531 -0.011 1.159
35.2736 0.317 1.166
35.2940 0.645 1.173
35.3144 3.578 1.236
35.3348 3.334 1.230
35.3552 2.777 1.218
35.3756 4.721 1.259
35.3960 0.623 1.170
35.4165 0.171 1.160
35.4369 0.970 1.177
35.4573 -0.003 1.155
35.4777 -0.558 1.142
35.4981 1.491 1.188
35.5185 2.759 1.215
35.5389 0.485 1.165
35.5594 1.076 1.177
35.5798 0.261 1.159
35.6002 -0.085 1.151
35.6206 0.559 1.165
35.6410 0.265 1.158
35.6614 -0.601 1.138
35.6818 -3.290 1.074
35.7023 2.459 1.205
35.7227 1.541 1.184
35.7431 -0.210 1.145
35.7635 -1.701 1.110
35.7839 1.757 1.188
35.8043 0.215 1.153
35.8248 1.590 1.183
35.8452 1.819 1.188
35.8656 0.017 1.147
35.8860 -0.379 1.138
35.9064 1.986 1.190
35.9268 -0.128 1.142
35.9472 2.394 1.198
35.9677 3.093 1.213
35.9881 4.625 1.245
36.0085 3.449 1.219
36.0289 3.055 1.210
36.0493 2.296 1.193
36.0697 4.767 1.246
36.0901 0.779 1.159
36.1106 0.958 1.162
36.1310 3.117 1.209
36.1514 1.943 1.183
36.1718 0.560 1.152
36.1922 0.063 1.140
36.2126 0.191 1.142
36.2330 3.861 1.223
36.2535 4.250 1.230
36.2739 4.795 1.241
36.2943 3.726 1.218
36.3147 0.157 1.139
36.3351 1.276 1.163
36.3555 0.207 1.139
36.3760 1.274 1.162
36.3964 -0.471 1.122
36.4168 1.065 1.156
36.4372 0.362 1.140
36.4576 0.753 1.148
36.4780 1.300 1.160
36.4984 2.160 1.179
36.5189 0.832 1.148
36.5393 0.963 1.151
36.5597 -0.520 1.116
36.5801 1.330 1.158
36.6005 -0.518 1.115
36.6209 -0.074 1.124
36.6413 -0.202 1.121
36.6618 2.794 1.188
36.6822 2.666 1.184
36.7026 1.340 1.154
36.7230 1.108 1.148
36.7434 0.043 1.123
36.7638 -0.293 1.115
36.7842 1.299 1.151
36.8047 -1.276 1.090
36.8251 0.680 1.135
36.8455 1.282 1.148
36.8659 -0.250 1.112
36.8863 1.707 1.156
36.9067 -0.763 1.099
36.9272 -0.942 1.094
36.9476 -1.224 1.086
36.9680 0.979 1.138
36.9884 0.473 1.126
37.0088 1.425 1.147
37.0292 1.649 1.152
37.0496 -0.940 1.091
37.0701 -0.924 1.091
37.0905 2.789 1.176
37.1109 1.191 1.140
37.1313 1.467 1.146
37.1517 1.692 1.151
37.1721 -1.781 1.069
37.1925 -0.150 1.107
37.2130 1.273 1.140
37.2334 0.978 1.133
37.2538 1.984 1.155
37.2742 0.752 1.127
37.2946 -0.272 1.102
37.3150 3.339 1.184
37.3354 1.847 1.151
37.3559 4.677 1.213
37.3763 1.831 1.149
37.3967 4.297 1.204
37.4171 4.420 1.206
37.4375 4.179 1.200
37.4579 3.364 1.182
37.4784 3.852 1.192
37.4988 2.622 1.165
37.5192 3.526 1.184
37.5396 2.505 1.161
37.5600 2.212 1.154
37.5804 1.399 1.135
37.6008 1.315 1.133
37.6213 2.898 1.168
37.6417 3.856 1.189
37.6621 2.522 1.159
37.6825 4.470 1.201
37.7029 1.835 1.142
37.7233 3.055 1.169
37.7437 5.003 1.211
37.7642 1.848 1.141
37.7846 0.203 1.102
37.8050 0.225 1.102
37.8254 2.383 1.152
37.8458 2.093 1.145
37.8662 1.178 1.123
37.8866 0.263 1.101
37.9071 -0.443 1.084
37.9275 -0.108 1.091
37.9479 3.353 1.170
37.9683 0.043 1.094
37.9887 -0.350 1.084
38.0091 0.351 1.100
38.0296 -3.010 1.017
38.0500 -0.278 1.084
38.0704 0.007 1.090
38.0908 -0.281 1.083
38.1112 -1.037 1.064
38.1316 0.706 1.105
38.1520 -1.039 1.062
38.1725 -0.181 1.083
38.1929 0.105 1.089
38.2133 1.745 1.127
38.2337 -0.989 1.061
38.2541 1.016 1.109
38.2745 -0.260 1.078
38.2949 -0.025 1.083
38.3154 -0.363 1.074
38.3358 2.059 1.130
38.3562 -0.310 1.074
38.3766 0.342 1.089
38.3970 -0.776 1.061
38.4174 -0.072 1.078
38.4378 -0.044 1.078
38.4583 -1.110 1.051
38.4787 1.001 1.101
38.4991 1.446 1.111
38.5195 -0.245 1.070
38.5399 -1.049 1.049
38.5603 -0.351 1.066
38.5808 0.452 1.085
38.6012 -1.140 1.046
38.6216 0.236 1.079
38.6420 0.310 1.080
38.6624 0.020 1.072
38.6828 0.147 1.075
38.7032 -0.715 1.053
38.7237 0.297 1.078
38.7441 0.529 1.083
38.7645 -0.020 1.069
38.7849 1.201 1.097
38.8053 2.787 1.134
38.8257 2.238 1.121
38.8461 1.377 1.100
38.8666 0.724 1.084
38.8870 2.363 1.122
38.9074 0.253 1.071
38.9278 0.277 1.071
38.9482 3.375 1.143
38.9686 4.651 1.172
38.9890 3.009 1.134
39.0095 3.816 1.152
39.0299 3.061 1.134
39.0503 0.743 1.079
39.0707 3.113 1.134
39.0911 1.576 1.097
39.1115 0.717 1.076
39.1320 1.005 1.083
39.1524 1.708 1.099
39.1728 2.517 1.117
39.1932 1.138 1.084
39.2136 1.321 1.088
39.2340 1.453 1.090
39.2544 0.074 1.056
39.2749 0.467 1.065
39.2953 1.068 1.079
39.3157 0.523 1.065
39.3361 -0.490 1.039
39.3565 1.622 1.090
39.3769 0.974 1.074
39.3973 -0.299 1.042
39.4178 1.292 1.080
39.4382 -0.554 1.034
39.4586 1.455 1.083
39.4790 0.235 1.052
39.4994 0.213 1.051
39.5198 -1.268 1.013
39.5402 0.898 1.066
39.5607 1.762 1.086
39.5811 -1.281 1.010
39.6015 -0.469 1.030
39.6219 0.916 1.064
39.6423 4.229 1.141
39.6627 -0.844 1.018
39.6832 -0.031 1.038
39.7036 -1.406 1.002
39.7240 0.070 1.039
39.7444 0.609 1.052
39.7648 -1.039 1.010
39.7852 2.156 1.089
39.8056 0.404 1.046
39.8261 0.058 1.036
39.8465 -0.080 1.033
39.8669 -1.206 1.003
39.8873 1.105 1.061
39.9077 -0.439 1.022
39.9281 -0.367 1.023
39.9485 -0.347 1.023
39.9690 1.079 1.058
39.9894 -1.609 0.990
40.0098 -0.495 1.018
40.0302 1.140 1.058
40.0506 1.057 1.056
40.0710 2.484 1.090
40.0915 -0.360 1.019
40.1119 -0.807 1.007
40.1323 0.985 1.052
40.1527 0.538 1.040
40.1731 -0.118 1.023
40.1935 2.456 1.086
40.2139 1.176 1.055
40.2344 -0.833 1.003
40.2548 1.273 1.056
40.2752 -1.777 0.977
40.2956 1.110 1.051
40.3160 -0.221 1.017
40.3364 1.469 1.058
40.3568 0.503 1.034
40.3773 1.412 1.056
40.3977 2.269 1.076
40.4181 -1.145 0.990
40.4385 -0.652 1.002
40.4589 -0.992 0.992
40.4793 -0.397 1.007
40.4997 1.397 1.052
40.5202 0.378 1.026
40.5406 0.089 1.018
40.5610 0.372 1.025
40.5814 -0.698 0.996
40.6018 -1.091 0.985
40.6222 3.204 1.093
40.6427 1.822 1.058
40.6631 2.419 1.072
40.6835 0.776 1.031
40.7039 1.895 1.058
40.7243 0.826 1.031
40.7447 1.632 1.051
40.7651 2.022 1.060
40.7856 0.693 1.026
40.8060 1.083 1.035
40.8264 3.504 1.094
40.8468 -0.272 0.999
40.8672 0.118 1.009
40.8876 -0.064 1.003
40.9080 0.848 1.026
40.9285 1.343 1.038
40.9489 -0.974 0.977
40.9693 3.376 1.086
40.9897 0.539 1.015
41.0101 1.816 1.047
41.0305 2.885 1.072
41.0509 0.256 1.006
41.0714 1.742 1.043
41.0918 3.020 1.074
41.1122 0.809 1.018
41.1326 -0.829 0.974
41.1530 0.345 1.005
41.1734 0.217 1.000
41.1939 -1.108 0.965
41.2143 2.671 1.061
41.2347 0.252 0.999
41.2551 1.584 1.033
41.2755 1.457 1.029
41.2959 2.112 1.044
41.3163 0.788 1.010
41.3368 0.714 1.007
41.3572 0.796 1.009
41.3776 -0.476 0.974
41.3980 -0.028 0.985
41.4184 0.159 0.990
41.4388 2.221 1.042
41.4592 -1.289 0.949
41.4797 2.388 1.044
41.5001 0.336 0.991
41.5205 1.618 1.023
41.5409 -0.277 0.973
41.5613 -0.454 0.967
41.5817 -0.005 0.979
41.6021 0.913 1.002
41.6226 0.685 0.995
41.6430 1.604 1.018
41.6634 -0.134 0.972
41.6838 1.461 1.013
41.7042 1.651 1.017
41.7246 0.070 0.974
41.7451 0.208 0.977
41.7655 3.054 1.049
41.7859 1.526 1.010
41.8063 0.206 0.974
41.8267 0.761 0.988
41.8471 0.535 0.981
41.8675 -0.940 0.940
41.8880 -0.828 0.943
41.9084 2.619 1.034
41.9288 1.742 1.011
41.9492 -0.332 0.956
41.9696 -0.114 0.962
41.9900 1.510 1.005
42.0104 0.061 0.966
42.0309 0.488 0.977
42.0513 0.133 0.967
42.0717 0.977 0.990
42.0921 -0.054 0.962
42.1125 0.165 0.967
42.1329 1.269 0.996
42.1533 1.332 0.998
42.1738 -0.532 0.948
42.1942 0.625 0.979
42.2146 2.199 1.019
42.2350 -0.497 0.948
42.2554 1.442 0.999
42.2758 0.881 0.984
42.2963 0.633 0.977
42.3167 -1.230 0.926
42.3371 1.543 1.000
42.3575 0.670 0.977
42.3779 1.360 0.995
42.3983 -0.345 0.949
42.4187 -0.749 0.937
42.4392 1.348 0.994
42.4596 1.414 0.995
42.4800 0.282 0.965
42.5004 0.296 0.965
42.5208 -0.471 0.943
42.5412 1.783 1.003
42.5616 -0.963 0.929
42.5821 -1.750 0.907
42.6025 1.682 1.000
42.6229 1.625 0.999
42.6433 0.110 0.959
42.6637 -0.208 0.950
42.6841 0.100 0.959
42.7045 0.304 0.965
42.7250 -0.065 0.955
42.7454 1.129 0.987
42.7658 0.083 0.959
42.7862 0.288 0.965
42.8066 -1.122 0.926
42.8270 0.333 0.966
42.8475 -0.503 0.943
42.8679 0.119 0.960
42.8883 -0.249 0.950
42.9087 -0.043 0.956
42.9291 1.673 1.002
42.9495 1.202 0.990
42.9699 0.419 0.969
42.9904 1.354 0.994
43.0108 1.665 1.002
43.0312 -1.566 0.914
43.0516 0.672 0.976
43.0720 0.098 0.960
43.0924 1.972 1.010
43.1128 -1.675 0.911
43.1333 0.616 0.974
43.1537 0.616 0.974
43.1741 -0.530 0.943
43.1945 -0.843 0.935
43.2149 0.511 0.972
43.2353 0.147 0.962
43.2557 0.720 0.977
43.2762 0.512 0.972
43.2966 1.347 0.994
43.3170 -0.892 0.933
43.3374 -0.526 0.943
43.3578 -0.473 0.945
43.3782 0.101 0.960
43.3987 1.093 0.987
43.4191 -0.885 0.933
43.4395 -0.831 0.935
43.4599 -0.672 0.939
43.4803 -0.878 0.933
43.5007 -0.303 0.949
43.5211 0.169 0.962
43.5416 -0.037 0.956
43.5620 0.331 0.966
43.5824 -1.176 0.924
43.6028 1.379 0.994
43.6232 -0.857 0.933
43.6436 0.032 0.958
43.6640 -0.745 0.936
43.6845 -0.376 0.946
43.7049 1.087 0.985
43.7253 0.362 0.966
43.7457 0.367 0.966
43.7661 0.788 0.977
43.7865 1.522 0.996
43.8069 0.434 0.967
43.8274 0.595 0.972
43.8478 -1.482 0.914
43.8682 -0.435 0.943
43.8886 -0.325 0.946
43.9090 -0.319 0.946
43.9294 1.406 0.992
43.9499 1.882 1.005
43.9703 1.472 0.994
43.9907 0.906 0.979
44.0111 0.027 0.955
44.0315 -0.330 0.945
44.0519 0.146 0.958
44.0723 1.039 0.981
44.0928 -0.151 0.949
44.1132 1.523 0.994
44.1336 2.729 1.025
44.1540 0.863 0.976
44.1744 1.340 0.988
44.1948 0.828 0.974
44.2152 1.774 0.999
44.2357 -0.353 0.942
44.2561 2.313 1.013
44.2765 0.655 0.969
44.2969 -0.325 0.942
44.3173 1.248 0.984
44.3377 2.560 1.018
44.3581 2.361 1.013
44.3786 1.955 1.002
44.3990 3.267 1.035
44.4194 1.351 0.985
44.4398 0.737 0.969
44.4602 2.310 1.010
44.4806 1.488 0.988
44.5011 0.093 0.950
44.5215 0.521 0.962
44.5419 1.002 0.974
44.5623 1.118 0.977
44.5827 3.265 1.033
44.6031 1.246 0.980
44.6235 0.321 0.955
44.6440 2.573 1.014
44.6644 1.857 0.995
44.6848 1.922 0.996
44.7052 2.716 1.017
44.7256 2.104 1.000
44.7460 0.295 0.952
44.7664 3.225 1.029
44.7869 1.781 0.991
44.8073 1.847 0.992
44.8277 1.653 0.987
44.8481 1.719 0.988
44.8685 2.515 1.009
44.8889 2.373 1.005
44.9093 1.242 0.974
44.9298 1.622 0.984
44.9502 1.689 0.985
44.9706 1.497 0.980
44.9910 0.627 0.956
45.0114 0.538 0.953
45.0318 1.440 0.977
45.0523 1.352 0.974
45.0727 1.264 0.972
45.0931 0.760 0.958
45.1135 -0.370 0.926
45.1339 -0.248 0.929
45.1543 -0.544 0.920
45.1747 0.463 0.948
45.1952 0.949 0.960
45.2156 1.800 0.983
45.2360 1.089 0.963
45.2564 -2.175 0.870
45.2768 -0.907 0.907
45.2972 1.398 0.970
45.3176 -1.090 0.901
45.3381 -0.504 0.917
45.3585 -0.074 0.929
45.3789 -0.165 0.926
45.3993 0.994 0.958
45.4197 0.747 0.950
45.4401 -0.645 0.911
45.4605 1.036 0.958
45.4810 0.321 0.937
45.5014 -0.446 0.916
45.5218 2.745 1.002
45.5422 0.729 0.948
45.5626 1.212 0.960
45.5830 3.519 1.021
45.6035 3.534 1.021
45.6239 2.768 1.000
45.6443 2.940 1.005
45.6647 2.852 1.002
45.6851 2.764 0.999
45.7055 3.040 1.006
45.7259 0.296 0.932
45.7464 0.573 0.939
45.7668 0.173 0.927
45.7872 3.054 1.005
45.8076 3.540 1.017
45.8280 2.099 0.979
45.8484 4.096 1.030
45.8688 2.759 0.995
45.8893 4.027 1.027
45.9097 3.940 1.025
45.9301 4.479 1.038
45.9505 5.018 1.051
45.9709 2.537 0.987
45.9913 2.399 0.983
46.0117 2.626 0.988
46.0322 2.020 0.972
46.0526 0.269 0.923
46.0730 1.955 0.969
46.0934 2.756 0.990
46.1138 3.192 1.000
46.1342 3.108 0.998
46.1547 4.742 1.039
46.1751 2.210 0.973
46.1955 1.918 0.965
46.2159 1.887 0.963
46.2363 0.814 0.933
46.2567 -0.884 0.884
46.2771 -0.883 0.884
46.2976 1.462 0.950
46.3180 -0.256 0.902
46.3384 -0.358 0.899
46.3588 1.883 0.962
46.3792 1.364 0.948
46.3996 2.303 0.973
46.4200 1.264 0.945
46.4405 1.006 0.937
46.4609 0.852 0.933
46.4813 1.115 0.940
46.5017 -0.184 0.904
46.5221 0.808 0.932
46.5425 1.645 0.955
46.5629 0.502 0.923
46.5834 -0.119 0.905
46.6038 2.645 0.981
46.6242 -0.216 0.902
46.6446 1.455 0.949
46.6650 1.043 0.937
46.6854 1.151 0.940
46.7059 0.635 0.926
46.7263 1.057 0.937
46.7467 0.906 0.933
46.7671 2.317 0.972
46.7875 2.322 0.972
46.8079 2.224 0.969
46.8283 -0.271 0.899
46.8488 2.339 0.972
46.8692 2.085 0.965
46.8896 1.935 0.960
46.9100 -0.558 0.890
46.9304 1.011 0.935
46.9508 -1.326 0.867
46.9712 1.441 0.946
46.9917 1.240 0.940
47.0121 0.101 0.908
47.0325 -0.256 0.898
47.0529 -0.248 0.898
47.0733 1.687 0.952
47.0937 0.289 0.913
47.1141 -1.213 0.868
47.1346 1.764 0.953
47.1550 0.366 0.914
47.1754 1.156 0.936
47.1958 0.853 0.927
47.2162 -1.065 0.872
47.2366 1.652 0.949
47.2571 1.453 0.943
47.2775 -0.204 0.896
47.2979 0.744 0.923
47.3183 -0.027 0.901
47.3387 0.712 0.921
47.3591 0.566 0.917
47.3795 1.722 0.949
47.4000 0.067 0.902
47.4204 -0.600 0.882
47.4408 -0.016 0.899
47.4612 -0.317 0.890
47.4816 1.361 0.937
47.5020 0.071 0.901
47.5224 -0.542 0.882
47.5429 0.563 0.914
47.5633 1.617 0.943
47.5837 0.015 0.898
47.6041 -0.337 0.887
47.6245 0.509 0.911
47.6449 -0.155 0.892
47.6653 -0.194 0.890
47.6858 0.704 0.916
47.7062 0.874 0.920
47.7266 1.721 0.943
47.7470 0.016 0.895
47.7674 0.186 0.899
47.7878 0.721 0.914
47.8083 1.621 0.939
47.8287 1.740 0.942
47.8491 0.504 0.907
47.8695 0.780 0.914
47.8899 0.118 0.895
47.9103 0.393 0.902
47.9307 0.409 0.902
47.9512 -0.305 0.881
47.9716 0.909 0.916
47.9920 -1.471 0.845
48.0124 1.097 0.920
48.0328 -0.449 0.875
48.0532 1.442 0.929
48.0736 -0.416 0.875
48.0941 1.163 0.920
48.1145 0.972 0.914
48.1349 1.093 0.917
48.1553 0.173 0.890
48.1757 -0.538 0.868
48.1961 -0.364 0.873
48.2165 1.633 0.930
48.2370 0.088 0.885
48.2574 -0.206 0.876
48.2778 0.437 0.895
48.2982 1.342 0.920
48.3186 0.319 0.890
48.3390 0.754 0.902
48.3595 0.513 0.895
48.3799 0.637 0.898
48.4003 1.073 0.910
48.4207 0.572 0.895
48.4411 1.529 0.921
48.4615 0.768 0.899
48.4819 -0.931 0.848
48.5024 -0.129 0.872
48.5228 2.183 0.937
48.5432 0.850 0.899
48.5636 0.454 0.887
48.5840 0.163 0.878
48.6044 0.080 0.875
48.6248 1.143 0.905
48.6453 -0.710 0.849
48.6657 -0.845 0.845
48.6861 0.242 0.878
48.7065 0.339 0.881
48.7269 0.957 0.899
48.7473 2.252 0.936
48.7678 1.152 0.905
48.7882 -1.198 0.835
48.8086 -0.007 0.872
48.8290 1.602 0.918
48.8494 0.294 0.881
48.8698 0.705 0.893
48.8902 1.012 0.902
48.9107 1.267 0.910
48.9311 0.689 0.893
48.9515 1.152 0.907
48.9719 0.731 0.895
48.9923 0.987 0.902
49.0127 -0.684 0.853
49.0331 1.447 0.916
49.0536 1.234 0.910
49.0740 1.335 0.913
49.0944 2.893 0.956
49.1148 1.952 0.930
49.1352 1.064 0.905
49.1556 1.737 0.924
49.1760 1.630 0.921
49.1965 1.575 0.920
49.2169 -1.448 0.830
49.2373 2.351 0.942
49.2577 0.943 0.902
49.2781 0.472 0.888
49.2985 1.303 0.913
49.3190 1.614 0.921
49.3394 -0.210 0.868
49.3598 0.049 0.876
49.3802 0.933 0.902
49.4006 1.348 0.914
49.4210 0.983 0.904
49.4414 0.930 0.902
49.4619 0.305 0.884
49.4823 1.242 0.911
49.5027 1.398 0.916
49.5231 0.773 0.898
49.5435 1.606 0.921
49.5639 0.982 0.904
49.5843 1.243 0.911
49.6048 1.035 0.905
49.6252 0.047 0.876
49.6456 0.308 0.884
49.6660 0.882 0.901
49.6864 0.571 0.892
49.7068 -0.104 0.872
49.7272 0.471 0.888
49.7477 1.254 0.911
49.7681 -0.098 0.872
49.7885 -0.200 0.868
49.8089 -0.093 0.872
49.8293 -0.664 0.854
49.8497 2.308 0.940
49.8702 0.384 0.885
49.8906 0.544 0.890
49.9110 -0.755 0.851
49.9314 -0.647 0.854
49.9518 0.607 0.892
49.9722 -0.848 0.848
49.9926 0.000 0.851
